timestamp,TP9,AF7,AF8,TP10
1789912294.365253,0.000,0.000,0.000,-0.488
1789912294.369112,-0.488,0.000,0.000,0.000
1789912294.372972,-1.953,-32.227,-29.297,4.395
1789912294.376832,4.883,70.312,63.477,-10.254
1789912294.380691,-26.855,-396.484,-362.793,62.500
1789912294.384551,-41.504,-1000.000,-956.055,158.203
1789912294.388411,-18.066,-992.188,-946.777,151.367
1789912294.392270,-34.668,-986.328,-979.492,136.719
1789912294.396130,-48.340,-1000.000,-1000.000,127.441
1789912294.399989,-35.645,-1000.000,-982.910,110.840
1789912294.403849,-33.203,-1000.000,-981.445,55.176
1789912294.407708,-50.293,-1000.000,-974.121,30.273
1789912294.410447,-98.633,-1000.000,-921.875,43.457
1789912294.414214,-114.258,-1000.000,-858.398,37.109
1789912294.417980,-104.980,-1000.000,-811.523,11.230
1789912294.421746,-129.395,-1000.000,-785.156,-14.648
1789912294.425512,-157.715,-1000.000,-739.258,-35.156
1789912294.429278,-202.148,-1000.000,-714.355,-68.359
1789912294.433044,-206.055,-1000.000,-672.852,-83.984
1789912294.436811,-243.652,-1000.000,-659.668,-162.598
1789912294.440577,-311.523,-1000.000,-669.434,-234.375
1789912294.444343,-302.246,-1000.000,-631.836,-250.488
1789912294.448109,-312.012,-1000.000,-576.660,-276.855
1789912294.451875,-360.840,-1000.000,-538.574,-299.316
1789912294.452774,-461.426,-998.535,-531.250,-341.797
1789912294.456421,-578.125,-1000.000,-519.531,-382.324
1789912294.460068,-642.578,-986.328,-473.145,-396.484
1789912294.463715,-681.641,-933.105,-414.062,-397.949
1789912294.467361,-736.816,-881.348,-371.094,-385.742
1789912294.471008,-795.898,-837.402,-338.867,-413.574
1789912294.474655,-800.293,-813.477,-310.059,-451.660
1789912294.478301,-786.133,-798.828,-287.598,-466.309
1789912294.481948,-764.648,-757.324,-268.555,-517.090
1789912294.485595,-693.848,-721.191,-241.211,-584.473
1789912294.489242,-648.438,-693.848,-211.914,-622.559
1789912294.492888,-616.699,-643.066,-167.480,-609.863
1789912294.492632,-581.055,-586.914,-124.023,-614.258
1789912294.496171,-570.312,-561.035,-129.395,-654.785
1789912294.499709,-518.066,-533.691,-123.535,-658.691
1789912294.503247,-464.844,-488.770,-96.680,-654.297
1789912294.506786,-426.270,-426.758,-63.965,-629.883
1789912294.510324,-365.234,-347.656,0.488,-617.676
1789912294.513862,-313.477,-264.648,55.664,-621.582
1789912294.517401,-260.254,-167.969,110.840,-603.027
1789912294.520939,-208.984,-104.004,164.062,-606.934
1789912294.524477,-190.918,-69.824,203.125,-618.652
1789912294.528016,-151.855,12.695,262.207,-620.117
1789912294.531554,-180.176,76.660,330.078,-584.473
1789912294.531390,-247.559,110.840,358.398,-548.340
1789912294.534852,-204.590,178.711,407.715,-524.902
1789912294.538313,-202.637,229.492,464.355,-498.535
1789912294.541774,-220.703,238.281,484.375,-477.051
1789912294.545235,-211.914,253.418,487.305,-475.586
1789912294.548697,-209.473,299.316,496.582,-463.379
1789912294.552158,-194.336,340.332,514.160,-424.316
1789912294.555619,-175.781,350.586,506.836,-397.461
1789912294.559080,-171.387,366.699,508.301,-368.164
1789912294.562541,-183.105,390.137,517.578,-349.121
1789912294.566002,-212.402,391.113,501.953,-341.309
1789912294.569463,-233.398,378.418,466.797,-348.633
1789912294.572507,-229.492,374.023,444.336,-369.141
1789912294.575962,-239.746,396.484,438.477,-387.207
1789912294.579416,-234.375,421.875,439.941,-394.531
1789912294.582870,-223.633,433.594,454.102,-370.117
1789912294.586324,-240.723,431.641,454.590,-351.562
1789912294.589779,-240.723,475.098,443.359,-343.262
1789912294.593233,-281.250,564.941,447.266,-341.309
1789912294.596687,-314.941,582.520,450.195,-383.789
1789912294.600141,-314.941,577.148,463.379,-407.715
1789912294.603596,-342.773,580.078,488.770,-410.645
1789912294.607050,-343.750,590.332,513.184,-422.852
1789912294.610504,-366.211,616.211,520.508,-431.641
1789912294.613870,-404.785,625.977,506.836,-436.035
1789912294.617323,-408.203,619.629,493.164,-459.961
1789912294.620776,-375.977,648.926,507.812,-472.168
1789912294.624229,-386.230,651.367,503.906,-477.051
1789912294.627682,-419.434,614.746,457.031,-505.371
1789912294.631135,-438.965,605.957,417.969,-525.391
1789912294.634588,-443.359,583.984,382.812,-543.457
1789912294.638041,-450.195,597.656,352.539,-542.480
1789912294.641494,-488.281,675.293,301.758,-572.266
1789912294.644947,-509.277,717.285,260.254,-560.547
1789912294.648400,-495.605,750.000,250.977,-544.434
1789912294.651853,-471.680,775.391,243.652,-570.312
1789912294.655575,-497.070,754.883,200.684,-584.473
1789912294.659031,-533.203,749.023,165.527,-592.285
1789912294.662487,-533.691,753.906,160.156,-607.422
1789912294.665943,-554.199,709.473,131.348,-651.855
1789912294.669399,-601.074,674.316,87.402,-691.406
1789912294.672856,-603.516,676.758,65.430,-681.641
1789912294.676312,-600.586,640.137,30.762,-708.496
1789912294.679768,-678.223,564.941,-30.762,-770.508
1789912294.683224,-734.375,484.375,-81.543,-798.340
1789912294.686680,-734.375,414.551,-123.047,-818.848
1789912294.690137,-755.371,365.234,-146.973,-834.473
1789912294.693593,-786.133,312.500,-170.410,-850.098
1789912294.697800,-752.441,301.758,-157.715,-833.008
1789912294.701264,-704.590,329.102,-120.605,-800.781
1789912294.704729,-696.777,338.867,-105.957,-769.043
1789912294.708193,-680.664,344.727,-99.121,-762.207
1789912294.711657,-657.715,354.980,-84.961,-752.930
1789912294.715121,-650.391,352.051,-67.871,-733.887
1789912294.718585,-653.320,330.078,-79.590,-756.348
1789912294.722049,-654.297,311.035,-84.473,-746.094
1789912294.725513,-663.086,272.461,-103.516,-745.605
1789912294.728977,-676.270,222.656,-145.508,-784.180
1789912294.732441,-770.996,103.516,-259.766,-857.910
1789912294.735905,-895.020,-37.109,-394.043,-974.121
1789912294.741686,0.000,-83.008,0.000,-1000.000
1789912294.745172,0.000,-98.145,0.000,-990.723
1789912294.748657,0.000,-99.609,0.000,-972.656
1789912294.752143,0.000,-105.957,0.000,-941.895
1789912294.755628,0.000,-132.812,0.000,-951.172
1789912294.759114,0.000,-160.645,0.000,-949.219
1789912294.762599,0.000,-161.133,0.000,-906.738
1789912294.766085,0.000,-111.816,0.000,-834.961
1789912294.769570,0.000,-67.871,0.000,-769.531
1789912294.773056,0.000,-59.570,0.000,-729.004
1789912294.776541,0.000,-79.590,0.000,-726.562
1789912294.780027,0.000,-90.332,0.000,-731.934
1789912294.784570,-660.156,-100.098,-297.852,-708.008
1789912294.788065,-654.297,-116.211,-293.457,-697.754
1789912294.791559,-615.723,-112.793,-282.715,-664.551
1789912294.795053,-585.449,-108.398,-270.508,-632.324
1789912294.798548,-566.406,-110.352,-268.555,-619.629
1789912294.802042,-549.805,-120.605,-272.949,-614.746
1789912294.805537,-539.551,-128.906,-265.137,-590.332
1789912294.809031,-511.230,-122.559,-255.371,-560.059
1789912294.812525,-520.020,-127.930,-256.836,-569.824
1789912294.816019,-518.066,-138.672,-259.277,-562.012
1789912294.819514,-511.719,-140.137,-256.348,-533.203
1789912294.823008,-522.949,-145.508,-251.465,-515.137
1789912294.827787,-516.602,-150.879,-246.582,-510.742
1789912294.831291,-539.062,-158.691,-249.023,-518.555
1789912294.834795,-531.250,-162.598,-243.652,-505.859
1789912294.838299,-533.691,-171.875,-220.703,-476.562
1789912294.841803,-583.984,-186.523,-208.008,-480.957
1789912294.845307,-589.355,-195.801,-211.914,-495.117
1789912294.848811,-560.059,-194.824,-208.008,-468.750
1789912294.852315,-544.434,-191.895,-196.289,-447.754
1789912294.855819,-536.621,-194.824,-191.406,-439.941
1789912294.859324,-534.180,-199.219,-186.035,-416.504
1789912294.862828,-519.043,-198.242,-174.316,-394.043
1789912294.866332,-491.699,-191.406,-169.922,-383.301
1789912294.871165,-464.844,-187.988,-172.852,-376.953
1789912294.874679,-455.078,-198.242,-179.688,-372.559
1789912294.878192,-448.730,-202.148,-185.059,-355.957
1789912294.881705,-447.754,-202.148,-182.617,-355.957
1789912294.885218,-459.961,-215.332,-188.965,-363.770
1789912294.888732,-443.359,-213.867,-190.430,-356.934
1789912294.892245,-434.570,-213.379,-192.383,-351.074
1789912294.895758,-446.289,-209.961,-196.289,-343.750
1789912294.899271,-444.336,-210.938,-199.707,-339.844
1789912294.902785,-435.547,-221.680,-199.219,-347.656
1789912294.906298,-407.715,-212.402,-190.918,-338.867
1789912294.909811,-377.441,-203.613,-179.688,-303.711
1789912294.916574,-335.938,-170.898,-146.973,-278.320
1789912294.920108,-289.062,-136.719,-115.234,-259.766
1789912294.923642,-254.883,-133.789,-106.445,-236.328
1789912294.927176,-235.352,-125.000,-103.516,-225.586
1789912294.930710,-230.469,-113.281,-94.238,-205.078
1789912294.934245,-232.422,-112.793,-91.309,-185.059
1789912294.937779,-239.258,-118.652,-98.145,-196.777
1789912294.941313,-266.602,-130.371,-104.004,-219.727
1789912294.944847,-298.340,-146.973,-120.117,-234.863
1789912294.948381,-278.320,-143.555,-122.559,-230.957
1789912294.951915,-252.930,-136.719,-116.699,-225.586
1789912294.955449,-266.113,-142.090,-117.676,-230.469
1789912294.963703,-257.324,-132.324,-105.469,-207.031
1789912294.967266,-241.699,-117.676,-89.844,-177.246
1789912294.970828,-246.582,-118.652,-83.984,-183.594
1789912294.974390,-238.281,-122.070,-81.543,-175.293
1789912294.977952,-224.609,-121.094,-79.590,-164.062
1789912294.981514,-238.770,-127.930,-85.938,-177.734
1789912294.985077,-237.305,-129.883,-92.285,-176.270
1789912294.988639,-231.934,-129.883,-89.844,-181.641
1789912294.992201,-235.840,-134.277,-88.867,-175.293
1789912294.995763,-231.445,-139.648,-90.332,-159.668
1789912294.999326,-225.586,-139.648,-85.449,-157.715
1789912295.002888,-205.078,-121.582,-67.383,-154.785
1789912295.009082,-190.918,-109.863,-60.547,-153.809
1789912295.012659,-195.801,-101.562,-57.129,-146.973
1789912295.016235,-193.359,-99.609,-50.293,-139.160
1789912295.019812,-178.711,-109.863,-54.199,-135.254
1789912295.023389,-190.430,-115.723,-60.547,-127.930
1789912295.026966,-191.406,-108.887,-65.918,-140.625
1789912295.030543,-174.805,-102.051,-55.176,-143.066
1789912295.034119,-252.930,-105.957,-59.570,-135.742
1789912295.037696,-332.520,-117.188,-82.031,-132.324
1789912295.041273,-304.688,-91.797,-55.176,-102.539
1789912295.044850,-227.539,-20.020,15.137,-26.367
1789912295.048427,-166.016,25.879,61.035,6.348
1789912295.054479,-140.137,25.879,64.453,14.160
1789912295.058069,-119.629,24.902,64.453,30.762
1789912295.061659,-111.328,38.086,65.430,31.738
1789912295.065248,-93.750,43.945,68.848,29.785
1789912295.068838,-86.426,39.551,64.941,4.883
1789912295.072428,-95.703,34.668,59.082,1.465
1789912295.076017,-63.965,41.992,62.988,15.137
1789912295.079607,-119.629,47.363,63.965,29.297
1789912295.083197,-242.676,46.387,64.453,25.879
1789912295.086787,-258.789,43.457,51.270,-9.766
1789912295.090376,-254.883,26.367,34.180,-40.039
1789912295.093966,-265.137,19.531,23.438,-44.922
1789912295.099889,-251.953,11.719,11.719,-62.500
1789912295.103490,-240.723,-4.395,6.836,-63.477
1789912295.107091,-232.910,-1.465,13.672,-37.598
1789912295.110692,-205.566,1.953,18.066,-41.016
1789912295.114293,-203.613,-8.789,7.324,-65.918
1789912295.117894,-198.242,-11.719,-1.953,-71.289
1789912295.121495,-195.801,-8.301,-4.395,-65.430
1789912295.125097,-195.801,-13.672,-4.883,-49.316
1789912295.128698,-174.805,-13.672,-3.906,-48.340
1789912295.132299,-155.762,-19.043,-10.742,-67.871
1789912295.135900,-149.902,-28.809,-15.137,-76.172
1789912295.139501,-141.113,-23.926,-16.113,-77.148
1789912295.145258,-129.395,-25.879,-16.113,-57.129
1789912295.148869,-116.699,-42.480,-19.043,-57.617
1789912295.152481,-115.234,-54.688,-18.066,-71.289
1789912295.156092,-135.742,-48.340,-16.113,-68.359
1789912295.159703,-136.719,-41.504,-17.578,-74.219
1789912295.163314,-118.652,-50.293,-9.766,-67.871
1789912295.166925,-108.887,-46.387,-6.836,-52.246
1789912295.170536,-105.469,-43.945,-12.207,-54.199
1789912295.174147,-100.586,-51.758,-14.160,-82.520
1789912295.177758,-90.820,-51.270,-14.648,-74.707
1789912295.181370,-83.008,-50.293,-12.695,-62.500
1789912295.184981,-81.055,-48.340,-10.742,-62.012
1789912295.190660,-75.684,-47.852,-15.137,-61.523
1789912295.194280,-75.684,-50.781,-18.066,-67.871
1789912295.197900,-75.684,-56.152,-21.973,-60.059
1789912295.201520,-58.105,-62.988,-27.344,-54.688
1789912295.205140,-60.547,-73.242,-35.645,-76.172
1789912295.208761,-61.523,-73.730,-33.691,-84.473
1789912295.212381,-55.176,-73.242,-29.785,-65.430
1789912295.216001,-56.152,-78.613,-35.156,-78.613
1789912295.219621,-60.059,-83.984,-41.504,-84.961
1789912295.223242,-72.754,-91.797,-48.340,-92.773
1789912295.226862,-74.707,-95.215,-46.875,-100.098
1789912295.230482,-61.035,-92.285,-48.828,-87.891
1789912295.236064,-58.594,-89.355,-50.293,-97.168
1789912295.239692,-61.035,-90.332,-42.480,-101.562
1789912295.243321,-74.707,-86.426,-36.133,-89.355
1789912295.246949,-85.938,-93.262,-43.945,-82.031
1789912295.250578,-70.312,-102.539,-51.758,-89.355
1789912295.254206,-77.148,-107.422,-52.246,-94.727
1789912295.257834,-88.379,-116.211,-62.500,-83.496
1789912295.261463,-112.793,-118.652,-66.895,-114.746
1789912295.265091,-155.273,-115.723,-68.359,-129.395
1789912295.268719,-149.414,-107.910,-68.848,-95.215
1789912295.272348,-117.676,-98.633,-53.223,-96.680
1789912295.275976,-93.750,-89.844,-44.922,-99.121
1789912295.281457,-75.684,-83.496,-47.363,-95.215
1789912295.285093,-78.613,-84.961,-44.434,-97.656
1789912295.288728,-81.055,-87.402,-43.457,-82.031
1789912295.292364,-70.312,-90.332,-41.016,-85.449
1789912295.296000,-72.754,-87.891,-32.715,-91.309
1789912295.299636,-60.547,-82.520,-34.180,-72.754
1789912295.303271,-41.504,-83.984,-40.527,-73.730
1789912295.306907,-51.758,-85.938,-42.969,-96.191
1789912295.310543,-68.848,-78.125,-35.645,-92.773
1789912295.314179,-69.336,-79.590,-28.320,-81.543
1789912295.317814,-62.012,-80.566,-31.738,-89.355
1789912295.321450,-54.688,-73.730,-31.738,-74.219
1789912295.328146,-52.246,-77.148,-31.250,-66.406
1789912295.331793,-46.875,-82.520,-34.668,-99.121
1789912295.335440,-55.176,-87.891,-40.039,-105.469
1789912295.339087,-69.336,-96.191,-47.852,-94.727
1789912295.342735,-59.570,-100.586,-51.270,-106.934
1789912295.346382,-57.617,-115.723,-64.941,-126.465
1789912295.350029,-87.891,-140.625,-88.379,-136.719
1789912295.353677,-98.633,-145.508,-96.191,-143.555
1789912295.357324,-74.707,-133.789,-90.332,-135.742
1789912295.360971,-66.895,-120.117,-84.473,-130.371
1789912295.364619,-68.359,-117.676,-83.008,-127.930
1789912295.368266,-71.289,-117.188,-79.102,-136.719
1789912295.374733,-62.988,-113.281,-70.801,-140.625
1789912295.378391,-49.316,-107.910,-62.988,-123.535
1789912295.382049,-56.641,-106.445,-62.500,-124.023
1789912295.385706,-58.105,-98.145,-59.082,-113.770
1789912295.389364,-39.551,-94.238,-55.664,-111.816
1789912295.393021,-31.738,-100.098,-56.641,-121.582
1789912295.396679,-40.527,-88.867,-54.199,-114.258
1789912295.400336,-47.852,-85.938,-51.758,-107.910
1789912295.403994,-47.852,-91.797,-56.152,-90.820
1789912295.407651,-27.344,-88.867,-55.176,-90.332
1789912295.411309,-23.438,-94.238,-54.199,-98.145
1789912295.414966,-41.016,-102.539,-55.664,-101.562
1789912295.421297,0.000,-109.863,-64.453,-116.699
1789912295.424964,0.000,-120.117,-74.707,-116.211
1789912295.428631,0.000,-118.652,-70.801,-112.793
1789912295.432298,0.000,-108.398,-68.848,-101.074
1789912295.435964,0.000,-107.910,-62.500,-95.215
1789912295.439631,0.000,-108.398,-56.152,-96.680
1789912295.443298,0.000,-102.051,-53.223,-99.121
1789912295.446965,0.000,-94.727,-52.246,-95.215
1789912295.450632,0.000,-87.402,-52.734,-68.359
1789912295.454298,0.000,-90.332,-57.617,-65.918
1789912295.457965,0.000,-103.027,-61.523,-96.680
1789912295.461632,0.000,-112.793,-62.500,-112.793
1789912295.467637,-68.359,-111.816,-62.988,-107.422
1789912295.471311,-65.918,-104.980,-59.082,-107.422
1789912295.474986,-72.754,-107.910,-61.035,-115.234
1789912295.478660,-74.707,-103.027,-58.594,-116.211
1789912295.482335,-60.059,-89.355,-56.641,-111.328
1789912295.486010,-53.223,-91.309,-58.105,-103.027
1789912295.489684,-68.848,-81.543,-58.594,-113.770
1789912295.493359,-65.430,-70.801,-61.523,-127.441
1789912295.497033,-55.664,-76.172,-66.895,-115.723
1789912295.500708,-65.430,-72.754,-66.406,-118.164
1789912295.504383,-62.012,-66.406,-56.641,-128.418
1789912295.508057,-52.734,-54.688,-48.828,-113.281
1789912295.513934,-48.828,-50.781,-52.246,-115.234
1789912295.517616,-56.152,-56.641,-55.176,-122.559
1789912295.521297,-63.965,-55.664,-59.082,-110.840
1789912295.524979,-71.777,-55.664,-67.871,-116.699
1789912295.528661,-67.383,-65.430,-74.707,-140.137
1789912295.532342,-62.988,-72.266,-77.637,-142.090
1789912295.536024,-83.984,-70.312,-78.125,-141.602
1789912295.539706,-87.891,-74.219,-74.707,-132.812
1789912295.543387,-81.543,-80.078,-69.336,-130.859
1789912295.547069,-91.309,-86.914,-82.031,-143.555
1789912295.550750,-98.633,-81.055,-85.938,-151.855
1789912295.554432,-86.426,-69.824,-74.707,-157.715
1789912295.560123,-78.613,-76.172,-68.848,-148.926
1789912295.563811,-84.961,-80.566,-66.406,-136.230
1789912295.567499,-99.609,-79.590,-66.895,-141.602
1789912295.571187,-110.840,-80.566,-66.406,-152.344
1789912295.574874,-103.027,-80.078,-60.547,-143.555
1789912295.578562,-93.750,-77.637,-48.828,-137.207
1789912295.582250,-98.145,-79.590,-41.504,-140.625
1789912295.585938,-102.539,-79.102,-38.574,-143.066
1789912295.589626,-101.074,-81.543,-40.039,-138.672
1789912295.593314,-100.098,-82.031,-40.527,-149.414
1789912295.597002,-97.168,-85.449,-38.574,-167.480
1789912295.600690,-103.027,-85.449,-35.156,-154.785
1789912295.606277,-105.957,-84.961,-31.250,-145.020
1789912295.609970,-87.402,-84.473,-25.391,-126.465
1789912295.613664,-87.891,-78.125,-31.250,-127.930
1789912295.617357,-105.957,-77.637,-46.387,-150.391
1789912295.621051,-113.281,-80.566,-51.270,-154.785
1789912295.624744,-114.258,-94.238,-54.199,-156.738
1789912295.628438,-103.027,-98.145,-53.711,-145.996
1789912295.632132,-84.473,-89.844,-48.340,-136.719
1789912295.635825,-79.590,-81.055,-44.922,-122.559
1789912295.639518,-85.938,-76.660,-46.875,-132.324
1789912295.643212,-100.586,-76.172,-50.293,-147.949
1789912295.646906,-101.074,-69.336,-57.129,-151.367
1789912295.652311,-88.867,-83.008,-62.988,-147.949
1789912295.656009,-78.613,-5.859,-63.477,-143.066
1789912295.659708,-63.477,131.836,-65.918,-140.137
1789912295.663406,-54.688,154.297,-61.035,-135.254
1789912295.667104,-42.969,143.066,-57.617,-137.695
1789912295.670803,-30.762,149.414,-56.152,-142.578
1789912295.674501,-29.785,143.555,-52.246,-131.836
1789912295.678200,-36.621,119.629,-63.477,-140.137
1789912295.681898,-20.996,116.211,-62.012,-129.395
1789912295.685597,-1.953,112.793,-37.109,-100.098
1789912295.689295,-15.625,83.008,-36.133,-110.352
1789912295.692994,-30.273,66.895,-46.387,-116.211
1789912295.699395,-20.508,75.684,-48.828,-118.164
1789912295.703101,-27.832,76.172,-54.688,-143.066
1789912295.706807,-37.109,63.965,-55.176,-140.137
1789912295.710512,-39.062,50.293,-65.430,-141.113
1789912295.714218,-60.059,27.344,-80.566,-167.480
1789912295.717924,-83.008,10.742,-85.449,-177.734
1789912295.721630,-82.031,2.930,-84.473,-155.762
1789912295.725336,-89.844,-18.066,-96.191,-178.223
1789912295.729042,-121.094,-49.316,-114.746,-212.891
1789912295.732748,-146.484,-76.172,-131.348,-216.797
1789912295.736454,-150.879,-93.262,-145.508,-230.957
1789912295.740160,-156.738,-105.957,-153.320,-243.652
1789912295.746320,-166.992,-120.117,-150.879,-244.141
1789912295.750032,-153.809,-125.000,-138.672,-239.746
1789912295.753745,-151.367,-128.906,-126.465,-232.422
1789912295.757457,-162.109,-130.859,-120.117,-228.027
1789912295.761170,-168.945,-130.859,-117.676,-241.211
1789912295.764882,-179.199,-136.719,-117.676,-245.605
1789912295.768595,-171.875,-141.602,-119.629,-231.934
1789912295.772307,-165.527,-149.414,-122.070,-229.004
1789912295.776020,-167.969,-154.785,-118.164,-230.957
1789912295.779732,-167.969,-156.738,-117.188,-228.516
1789912295.783445,-171.875,-153.320,-105.469,-233.887
1789912295.787158,-174.316,-150.879,-95.703,-229.492
1789912295.793136,-164.062,-154.785,-95.215,-217.773
1789912295.796854,-165.527,-161.133,-93.262,-232.422
1789912295.800573,-179.688,-172.852,-97.656,-241.211
1789912295.804291,-172.363,-169.922,-89.844,-221.191
1789912295.808010,-161.621,-157.227,-84.961,-210.449
1789912295.811728,-163.574,-160.156,-90.332,-223.633
1789912295.815447,-177.734,-174.316,-96.191,-241.699
1789912295.819165,-198.730,-189.941,-100.586,-234.863
1789912295.822883,-200.195,-201.172,-111.328,-215.820
1789912295.826602,-198.730,-200.195,-118.652,-195.312
1789912295.830320,-198.730,-191.895,-111.816,-183.594
1789912295.834039,-190.430,-190.430,-107.910,-186.035
1789912295.839890,-169.922,-185.547,-104.004,-174.805
1789912295.843614,-164.062,-183.105,-99.609,-159.180
1789912295.847337,-177.734,-186.523,-100.586,-144.531
1789912295.851061,-182.617,-181.152,-98.633,-132.324
1789912295.854785,-174.316,-174.316,-93.750,-110.840
1789912295.858509,-152.344,-169.434,-95.215,-71.289
1789912295.862233,-149.414,-161.621,-104.004,-77.148
1789912295.865957,-173.340,-163.086,-104.492,-98.633
1789912295.869680,-164.062,-168.945,-101.074,-96.191
1789912295.873404,-152.344,-161.621,-103.516,-96.191
1789912295.877128,-157.715,-159.180,-106.934,-91.309
1789912295.880852,-148.926,-153.320,-100.098,-81.543
1789912295.886485,-139.160,-139.160,-93.262,-81.543
1789912295.890214,-129.883,-135.254,-93.262,-87.402
1789912295.893942,-118.164,-130.859,-92.773,-80.078
1789912295.897671,-110.840,-127.930,-93.750,-83.984
1789912295.901399,-111.328,-129.395,-96.680,-99.121
1789912295.905128,-126.953,-135.742,-107.422,-91.797
1789912295.908856,-136.230,-141.602,-115.234,-82.031
1789912295.912585,-133.301,-150.879,-122.559,-91.797
1789912295.916313,-136.230,-159.668,-128.906,-99.121
1789912295.920042,-145.508,-163.086,-126.465,-102.051
1789912295.923770,-136.719,-152.344,-114.746,-98.145
1789912295.927499,-106.934,-137.207,-102.051,-91.309
1789912295.932980,-99.121,-128.418,-95.215,-63.965
1789912295.936713,-85.938,-108.887,-76.660,-52.734
1789912295.940446,-63.477,-91.309,-60.059,-65.918
1789912295.944178,-60.547,-88.867,-59.082,-79.590
1789912295.947911,-63.477,-81.543,-58.594,-85.449
1789912295.951644,-62.988,-78.125,-63.477,-72.754
1789912295.955376,-62.012,-75.684,-57.617,-67.871
1789912295.959109,-62.988,-73.730,-52.734,-56.152
1789912295.962842,-57.129,-74.219,-48.340,-52.734
1789912295.966574,-51.758,-64.453,-38.574,-44.922
1789912295.970307,-45.410,-60.059,-37.109,-28.809
1789912295.974040,-38.086,-63.965,-42.969,-29.785
1789912295.979397,-35.156,-58.105,-47.852,-54.199
1789912295.983133,-21.973,-49.316,-45.898,-63.477
1789912295.986870,-14.648,-43.945,-36.621,-53.223
1789912295.990606,-8.789,-50.293,-39.062,-61.035
1789912295.994343,-15.625,-60.059,-50.781,-57.129
1789912295.998079,-31.250,-62.988,-53.223,-55.176
1789912296.001816,-33.203,-59.082,-51.758,-50.293
1789912296.005552,-27.832,-47.852,-52.734,-36.621
1789912296.009289,-12.695,-36.133,-54.199,-44.922
1789912296.013025,-20.020,-33.203,-54.688,-58.105
1789912296.016761,-31.250,-37.109,-61.523,-62.012
1789912296.020498,-20.508,-37.598,-63.477,-54.688
1789912296.027593,-16.602,-31.738,-52.246,0.000
1789912296.031337,-22.461,-24.902,-52.734,0.000
1789912296.035081,-18.066,-22.461,-61.523,0.000
1789912296.038825,-10.742,-20.020,-62.988,0.000
1789912296.042569,-7.812,-13.184,-57.129,0.000
1789912296.046313,-7.812,-9.277,-49.805,0.000
1789912296.050057,3.418,-7.324,-48.828,0.000
1789912296.053801,12.695,-8.789,-50.293,0.000
1789912296.057545,3.906,-9.766,-51.270,0.000
1789912296.061289,-1.465,-7.324,-54.199,0.000
1789912296.065033,-1.465,-16.602,-64.453,0.000
1789912296.068777,-12.207,-22.949,-69.336,0.000
1789912296.074686,-11.230,-17.090,-60.547,0.977
1789912296.078434,-4.395,-8.789,-56.641,14.648
1789912296.082183,-4.883,-6.348,-56.152,20.020
1789912296.085932,2.441,-5.371,-50.781,-0.977
1789912296.089681,20.508,-0.977,-50.781,10.742
1789912296.093430,9.766,-6.348,-59.570,14.648
1789912296.097178,-10.254,-11.230,-62.988,-3.418
1789912296.100927,-5.371,-9.766,-59.082,3.418
1789912296.104676,0.977,-11.719,-58.594,9.766
1789912296.108424,3.906,-20.996,-75.684,-20.996
1789912296.112173,-9.766,-31.738,-87.402,-22.461
1789912296.115922,5.371,-28.320,-76.172,4.883
1789912296.121681,0.000,-20.996,-63.477,11.230
1789912296.125434,0.000,-26.855,-67.871,12.207
1789912296.129187,0.000,-33.691,-73.242,1.953
1789912296.132940,0.000,-28.809,-72.754,-27.344
1789912296.136693,0.000,-28.320,-81.543,-42.969
1789912296.140446,0.000,-33.203,-81.055,-14.160
1789912296.144199,0.000,-30.762,-71.777,10.742
1789912296.147952,0.000,-30.762,-74.707,-1.465
1789912296.151705,0.000,-31.738,-76.172,-5.371
1789912296.155458,0.000,-29.785,-72.754,15.625
1789912296.159211,0.000,-27.344,-68.848,7.324
1789912296.162964,0.000,-26.855,-62.988,-4.395
1789912296.168582,-1.465,-28.320,-59.570,15.137
1789912296.172339,-8.789,-37.109,-59.082,21.973
1789912296.176096,0.488,-42.969,-61.035,-2.930
1789912296.179853,1.953,-43.457,-67.871,-17.578
1789912296.183610,-14.160,-54.688,-72.266,-21.973
1789912296.187367,-24.414,-62.500,-72.754,-2.930
1789912296.191124,-16.113,-62.988,-72.754,13.184
1789912296.194881,-9.277,-63.965,-72.266,-17.090
1789912296.198638,-22.949,-66.406,-78.125,-26.367
1789912296.202395,-41.992,-62.012,-79.102,-32.227
1789912296.206152,-41.016,-53.711,-75.684,-52.734
1789912296.209909,-33.691,-57.617,-71.289,-45.898
1789912296.215382,-24.902,-55.664,-69.824,-23.926
1789912296.219142,-20.996,-49.316,-67.871,-14.648
1789912296.222903,-20.996,-51.270,-67.871,-8.789
1789912296.226663,-36.133,-51.758,-70.801,-1.953
1789912296.230423,-37.109,-49.316,-66.406,-5.859
1789912296.234184,-29.297,-47.363,-56.641,-4.395
1789912296.237944,-31.738,-42.480,-54.688,12.695
1789912296.241705,-15.137,-36.133,-50.293,19.043
1789912296.245465,-7.812,-31.250,-47.852,7.812
1789912296.249226,-11.230,-30.273,-53.223,-1.953
1789912296.252986,-11.719,-34.180,-50.293,3.906
1789912296.256747,-16.602,-40.039,-45.410,21.973
1789912296.262078,-25.879,-37.109,-48.828,36.133
1789912296.265841,-21.484,-32.715,-55.664,22.461
1789912296.269605,-16.113,-33.691,-50.293,9.277
1789912296.273369,-29.297,-30.762,-46.387,8.301
1789912296.277132,-26.855,-25.879,-48.828,0.488
1789912296.280896,-0.488,-25.879,-40.039,13.672
1789912296.284659,-9.277,-36.621,-38.574,11.230
1789912296.288423,-25.879,-37.109,-38.574,30.762
1789912296.292186,-14.160,-25.391,-27.344,51.758
1789912296.295950,-16.113,-20.508,-18.066,27.344
1789912296.299713,-26.367,-17.090,-26.367,8.789
1789912296.303477,-16.113,-11.719,-35.156,40.039
1789912296.308674,-15.625,-20.996,-27.344,50.781
1789912296.312440,-45.898,-33.203,-17.090,10.254
1789912296.316206,-58.105,-38.086,-14.160,7.324
1789912296.319973,-57.129,-33.691,-12.207,15.137
1789912296.323739,-50.781,-27.344,-11.230,0.977
1789912296.327505,-49.805,-38.574,-10.254,-7.324
1789912296.331271,-65.430,-42.480,-3.418,-10.254
1789912296.335038,-75.684,-33.203,-10.254,5.371
1789912296.338804,-70.801,-44.434,-22.461,5.859
1789912296.342571,-55.176,-50.293,-17.090,-5.859
1789912296.346337,-46.875,-45.410,-17.090,-15.137
1789912296.350103,-49.805,-45.898,-20.508,-7.812
1789912296.355205,-57.129,-46.387,-23.438,-13.672
1789912296.358974,-49.316,-40.039,-19.531,-20.996
1789912296.362743,-43.457,-33.691,-14.648,-4.395
1789912296.366512,-42.480,-25.391,-15.137,-5.859
1789912296.370281,-37.598,-30.762,-15.625,-15.137
1789912296.374050,-40.039,-43.457,-22.461,-20.020
1789912296.377818,-43.457,-37.598,-20.020,-1.953
1789912296.381587,-32.227,-36.133,-12.207,9.277
1789912296.385356,-30.273,-37.598,-8.789,3.906
1789912296.389125,-24.902,-35.645,-12.695,0.000
1789912296.392894,-15.625,-33.203,-16.113,8.789
1789912296.396663,-20.020,-39.062,-18.066,-8.789
1789912296.401656,-18.066,-37.598,-17.578,-13.184
1789912296.405428,-9.766,-26.367,-8.301,-0.977
1789912296.409199,-11.230,-32.715,-8.789,7.812
1789912296.412970,-16.113,-38.086,-16.113,-4.883
1789912296.416741,-9.766,-32.715,-20.508,-38.574
1789912296.420512,-1.953,-26.855,-12.695,-24.414
1789912296.424283,1.465,-27.832,-14.648,-9.277
1789912296.428054,1.465,-38.574,-20.508,-19.531
1789912296.431825,1.465,-40.527,-17.090,-22.949
1789912296.435596,15.137,-37.598,-19.043,-21.973
1789912296.439368,15.625,-39.551,-21.973,-17.578
1789912296.443139,0.977,-39.551,-26.367,-23.438
1789912296.448784,-11.719,-39.551,-24.902,-41.992
1789912296.452558,-14.160,-39.551,-18.066,-25.391
1789912296.456333,-5.371,-38.574,-17.578,-18.066
1789912296.460107,2.441,-37.109,-16.602,-34.668
1789912296.463882,-1.953,-38.574,-21.484,-41.992
1789912296.467656,1.465,-37.109,-20.996,-32.227
1789912296.471431,-7.812,-43.457,-27.832,-39.551
1789912296.475205,-8.301,-54.199,-33.691,-57.129
1789912296.478980,-15.137,-62.012,-29.297,-62.500
1789912296.482754,-20.996,-63.965,-31.738,-73.242
1789912296.486529,-8.789,-65.918,-38.086,-71.289
1789912296.490304,-12.695,-69.336,-41.016,-72.266
1789912296.495838,-19.043,-64.941,-41.504,-64.453
1789912296.499616,-13.672,-59.082,-47.363,-42.969
1789912296.503393,-13.672,-60.547,-48.340,-55.664
1789912296.507171,-19.531,-58.594,-38.574,-64.941
1789912296.510949,-13.184,-55.176,-35.156,-45.898
1789912296.514726,-4.883,-57.617,-38.086,-49.316
1789912296.518504,-4.395,-56.152,-32.715,-52.246
1789912296.522282,11.230,-54.199,-30.273,-44.434
1789912296.526059,18.555,-52.734,-30.762,-44.922
1789912296.529837,4.883,-48.828,-24.414,-22.461
1789912296.533615,13.672,-47.363,-22.949,-30.273
1789912296.537392,11.230,-46.387,-22.461,-50.781
1789912296.542814,8.789,-48.340,-17.578,-29.297
1789912296.546594,22.461,-49.316,-16.602,-21.484
1789912296.550375,12.695,-41.016,-18.555,-22.461
1789912296.554155,18.555,-30.762,-12.207,-0.977
1789912296.557936,32.227,-27.344,-5.371,2.930
1789912296.561716,18.555,-26.367,-2.441,-9.766
1789912296.565497,28.320,-21.973,0.977,-24.902
1789912296.569277,25.391,-28.320,7.324,-29.297
1789912296.573058,18.066,-34.180,6.348,7.812
1789912296.576838,20.996,-34.180,-4.395,-9.766
1789912296.580619,14.160,-36.133,-5.371,-42.480
1789912296.584399,13.184,-34.668,-6.836,-30.273
1789912296.589690,18.066,-30.273,-2.930,-22.461
1789912296.593473,20.020,-31.250,11.230,-17.090
1789912296.597256,29.297,-22.949,20.508,-14.648
1789912296.601039,24.414,-14.160,23.926,17.090
1789912296.604822,4.883,-20.020,23.438,49.805
1789912296.608605,-0.488,-28.320,13.672,34.668
1789912296.612388,-0.977,-40.039,2.930,41.016
1789912296.616171,-17.090,-45.410,2.930,55.176
1789912296.619954,-11.719,-44.922,6.348,47.852
1789912296.623737,-2.441,-41.992,4.395,57.129
1789912296.627520,-20.020,-40.039,-2.441,35.156
1789912296.631303,-30.273,-45.410,-5.859,18.066
1789912296.636484,-24.414,-47.852,-0.977,28.320
1789912296.640270,1.953,-41.016,0.977,32.227
1789912296.644055,15.625,-33.691,8.301,41.992
1789912296.647840,16.602,-28.320,19.043,65.918
1789912296.651626,11.230,-30.273,13.672,66.406
1789912296.655411,2.441,-32.227,3.418,32.227
1789912296.659197,3.418,-29.297,4.883,33.691
1789912296.662982,19.531,-24.414,10.742,50.781
1789912296.666768,18.555,-22.461,11.719,47.363
1789912296.670553,13.184,-21.973,18.066,62.500
1789912296.674338,32.715,-19.043,24.902,70.312
1789912296.678124,21.484,-18.555,21.973,44.922
1789912296.683162,39.062,-19.043,24.902,51.758
1789912296.686949,71.777,-12.695,32.227,48.828
1789912296.690737,27.344,-7.812,32.227,42.480
1789912296.694524,19.043,-5.859,30.273,46.875
1789912296.698312,38.574,-12.207,27.832,51.270
1789912296.702099,37.598,-14.648,25.879,45.410
1789912296.705887,16.113,-13.672,20.020,40.039
1789912296.709674,3.418,-25.391,15.625,45.898
1789912296.713462,28.320,-23.438,21.484,32.227
1789912296.717249,20.508,-10.742,25.879,18.555
1789912296.721036,12.207,-12.207,24.902,8.301
1789912296.724824,21.973,-10.742,26.367,9.277
1789912296.729771,18.555,-0.977,31.738,29.785
1789912296.733561,15.137,-2.441,28.320,19.531
1789912296.737350,15.625,-2.930,27.832,0.000
1789912296.741139,18.066,3.418,36.133,19.531
1789912296.744929,23.926,1.953,32.715,27.832
1789912296.748718,31.738,-4.883,23.926,21.973
1789912296.752507,23.438,-9.766,20.020,20.508
1789912296.756297,17.090,-11.230,20.508,21.973
1789912296.760086,17.090,-12.695,22.949,4.883
1789912296.763875,0.000,-12.207,24.902,-8.301
1789912296.767664,-15.137,-9.766,35.156,17.090
1789912296.771454,7.324,-7.324,34.668,45.898
1789912296.776322,24.414,-4.395,28.809,20.996
1789912296.780113,23.926,-7.324,24.414,-7.324
1789912296.783904,26.855,-10.742,21.973,4.395
1789912296.787695,16.602,-9.766,28.320,17.090
1789912296.791486,11.719,-16.602,25.879,27.344
1789912296.795277,11.719,-21.973,12.207,11.719
1789912296.799068,7.812,-21.973,2.930,-3.906
1789912296.802859,10.254,-20.996,14.648,5.371
1789912296.806650,4.883,-23.926,20.508,10.254
1789912296.810441,5.371,-31.738,9.766,-3.418
1789912296.814232,15.137,-29.297,12.695,-10.254
1789912296.818023,1.465,-31.738,8.789,-3.906
1789912296.823470,-4.883,-35.645,-5.371,-9.277
1789912296.827263,-3.418,-33.203,-5.371,-13.184
1789912296.831057,-10.742,-34.180,-4.883,-29.785
1789912296.834850,-5.371,-25.391,2.930,-21.973
1789912296.838644,-0.977,-33.691,6.836,-14.160
1789912296.842438,16.113,-39.551,2.930,-10.254
1789912296.846231,38.086,-25.391,3.418,14.160
1789912296.850024,37.598,-21.973,2.441,20.996
1789912296.853818,18.555,-22.949,2.441,12.695
1789912296.857612,17.578,-23.926,1.953,0.977
1789912296.861405,24.902,-19.043,6.836,4.395
1789912296.865199,25.879,-8.301,17.578,8.301
1789912296.870534,26.367,-4.395,21.973,12.207
1789912296.874330,0.977,-30.762,6.348,-8.789
1789912296.878125,-49.805,-91.309,-46.387,-48.828
1789912296.881921,-72.266,-115.723,-74.707,-61.035
1789912296.885717,-70.312,-104.492,-54.199,-68.359
1789912296.889513,-65.918,-93.262,-51.758,-71.289
1789912296.893309,-63.477,-90.820,-63.965,-55.176
1789912296.897105,-59.082,-96.191,-51.270,-33.691
1789912296.900901,-41.992,-79.102,-38.574,-42.969
1789912296.904696,-30.762,-68.359,-39.551,-56.641
1789912296.908493,-38.574,-70.801,-33.203,-49.805
1789912296.912288,-41.016,-70.801,-22.461,-33.203
1789912296.917522,-37.109,-68.848,-15.625,-28.320
1789912296.921320,-34.668,-66.406,-14.160,-40.527
1789912296.925118,-19.043,-56.641,-16.602,-45.898
1789912296.928916,-19.531,-39.062,-19.043,-46.875
1789912296.932714,-21.484,-37.598,-23.926,-43.457
1789912296.936512,-16.602,-47.852,-15.625,-41.992
1789912296.940310,-27.832,-43.945,-10.742,-29.785
1789912296.944108,-49.805,-41.016,-15.137,-31.250
1789912296.947906,-40.527,-40.527,-10.742,-37.109
1789912296.951704,-17.090,-38.574,-20.020,-17.578
1789912296.955502,-32.227,-35.156,-22.949,-21.484
1789912296.959300,-31.250,-31.738,-12.207,-43.457
1789912296.964408,-22.949,-28.320,-13.184,-52.734
1789912296.968208,-27.344,-26.855,-15.625,-48.340
1789912296.972008,-18.066,-28.320,-7.324,-50.293
1789912296.975808,-24.414,-25.391,-9.277,-59.082
1789912296.979608,-36.133,-26.367,-26.367,-47.363
1789912296.983407,-41.504,-17.578,-29.297,-34.668
1789912296.987207,-37.598,-14.160,-23.438,-50.293
1789912296.991007,-34.668,-28.809,-22.461,-51.270
1789912296.994807,-40.527,-28.320,-22.461,-40.527
1789912296.998607,-41.992,-19.043,-19.043,-39.062
1789912297.002407,-32.715,-12.695,-12.695,-8.301
1789912297.006207,-41.992,-11.230,-12.207,-12.695
1789912297.011240,-53.711,-9.277,-19.043,-48.828
1789912297.015042,-42.480,-5.859,-20.996,-57.129
1789912297.018844,-33.203,-4.395,-17.578,-36.133
1789912297.022645,-32.715,-4.883,-18.555,-34.180
1789912297.026447,-25.391,-6.348,-20.508,-51.270
1789912297.030249,-45.898,-6.348,-19.531,-38.086
1789912297.034050,-51.758,-5.371,-21.484,-41.016
1789912297.037852,-48.828,-14.160,-21.973,-52.246
1789912297.041654,-64.453,-17.090,-24.902,-45.410
1789912297.045455,-59.082,-16.602,-26.855,-38.086
1789912297.049257,-49.805,-18.066,-27.344,-43.945
1789912297.053059,-55.176,-15.137,-35.645,-55.664
1789912297.057970,-54.199,-15.625,-40.039,-65.918
1789912297.061773,-57.129,-19.043,-42.969,-79.590
1789912297.065576,-68.359,-19.043,-44.922,-64.453
1789912297.069380,-63.965,-21.484,-47.363,-65.430
1789912297.073183,-75.195,-21.484,-43.457,-67.871
1789912297.076986,-93.750,-22.461,-45.898,-53.223
1789912297.080790,-97.656,-29.785,-52.246,-62.500
1789912297.084593,-94.727,-29.785,-59.570,-71.289
1789912297.088396,-76.660,-28.809,-56.152,-68.359
1789912297.092199,-65.918,-29.297,-50.781,-81.543
1789912297.096003,-83.984,-28.809,-65.918,-104.980
1789912297.099806,-87.891,-28.809,-71.777,-83.984
1789912297.104635,-72.266,-30.273,-72.266,-80.078
1789912297.108440,-75.684,-33.203,-67.871,-88.379
1789912297.112245,-84.961,-31.250,-58.105,-77.148
1789912297.116049,-76.660,-27.344,-60.059,-85.449
1789912297.119854,-80.566,-22.949,-60.059,-84.473
1789912297.123659,-66.406,-14.648,-54.688,-53.223
1789912297.127463,-59.570,-10.254,-56.641,-40.527
1789912297.131268,-66.895,-6.836,-61.523,-45.410
1789912297.135073,-54.688,-3.418,-55.664,-41.504
1789912297.138878,-48.828,-1.953,-53.223,-25.879
1789912297.142682,-52.246,1.465,-57.129,-29.785
1789912297.146487,-51.758,5.859,-51.270,-41.992
1789912297.151244,-48.828,5.371,-54.199,-36.133
1789912297.155050,-60.059,0.488,-61.035,-37.598
1789912297.158856,-72.754,-9.277,-67.383,-31.738
1789912297.162662,-75.195,-13.184,-69.336,-43.457
1789912297.166468,-64.941,-12.695,-63.477,-46.875
1789912297.170274,-55.176,-9.277,-63.965,-27.344
1789912297.174080,-54.688,-0.977,-70.312,-20.508
1789912297.177886,-64.941,-15.137,-66.406,-22.949
1789912297.181692,-67.871,-22.949,-66.895,-35.645
1789912297.185498,-53.223,-17.090,-74.219,-75.684
1789912297.189304,-50.293,-18.066,-78.125,-95.215
1789912297.193110,-59.570,-27.832,-83.496,-77.148
1789912297.198367,-65.430,-34.180,-82.031,-65.430
1789912297.202175,-69.824,-36.621,-85.449,-60.059
1789912297.205983,-75.195,-32.227,-83.984,-62.988
1789912297.209791,-63.477,-29.297,-82.520,-77.148
1789912297.213599,-54.199,-31.738,-83.984,-71.289
1789912297.217407,-70.801,-31.738,-81.543,-31.250
1789912297.221215,-75.195,-33.203,-87.891,-39.551
1789912297.225023,-70.312,-40.527,-90.820,-61.035
1789912297.228831,-61.523,-48.828,-85.449,-57.617
1789912297.232639,-58.594,-34.668,-84.473,-73.730
1789912297.236447,-79.102,-40.039,-89.844,-75.195
1789912297.240255,-90.820,-58.594,-93.750,-84.473
1789912297.245471,-97.168,-59.570,-93.750,-75.195
1789912297.249281,-83.984,-50.293,-91.797,-66.406
1789912297.253091,-53.223,-35.156,-85.938,-92.773
1789912297.256901,-48.340,-33.691,-82.031,-70.312
1789912297.260710,-68.848,-37.598,-83.984,-74.219
1789912297.264520,-63.965,-38.086,-76.172,-83.984
1789912297.268330,-41.992,-36.621,-75.684,-74.219
1789912297.272140,-51.270,-37.109,-78.613,-83.496
1789912297.275950,-68.359,-27.344,-71.289,-57.129
1789912297.279760,-74.219,-28.809,-76.660,-41.504
1789912297.283569,-76.660,-45.410,-86.914,-46.387
1789912297.287379,-58.105,-40.039,-79.102,-58.105
1789912297.292450,-55.176,-33.203,-74.219,-69.336
1789912297.296261,-74.707,-35.645,-78.613,-72.266
1789912297.300072,-66.895,-40.527,-76.172,-66.895
1789912297.303884,-63.477,-41.992,-69.336,-35.156
1789912297.307695,-62.012,-36.621,-69.336,-27.832
1789912297.311507,-52.734,-33.691,-69.336,-50.781
1789912297.315318,-50.293,-33.691,-67.871,-69.336
1789912297.319130,-52.246,-33.691,-71.777,-61.035
1789912297.322941,-66.406,-38.574,-72.754,-61.035
1789912297.326753,-62.012,-47.852,-70.312,-58.105
1789912297.330564,-48.828,-42.480,-63.965,-33.203
1789912297.334376,-45.410,-31.738,-59.570,-27.832
1789912297.339348,-33.203,-29.785,-59.570,-29.297
1789912297.343161,-30.762,-21.973,-62.012,-41.504
1789912297.346974,-50.781,-39.062,-67.871,-39.062
1789912297.350787,-54.199,-51.758,-68.848,-46.387
1789912297.354600,-50.293,-44.434,-67.871,-68.359
1789912297.358413,-47.363,-45.410,-73.242,-65.430
1789912297.362226,-54.199,-46.875,-70.801,-42.480
1789912297.366039,-46.387,-47.363,-66.895,-20.020
1789912297.369852,-45.410,-49.316,-73.242,-20.996
1789912297.373665,-40.527,-48.340,-70.801,-10.254
1789912297.377478,-32.715,-40.527,-66.895,1.465
1789912297.381291,-43.457,-36.133,-69.336,-28.809
1789912297.386183,-39.551,-40.527,-68.848,-24.902
1789912297.389997,-33.691,-42.969,-66.895,-33.203
1789912297.393812,-39.062,-41.016,-62.988,-52.734
1789912297.397626,-44.434,-43.457,-62.988,-38.574
1789912297.401440,-58.105,-44.434,-62.012,-40.039
1789912297.405255,-57.617,-44.434,-61.035,-46.875
1789912297.409069,-35.645,-43.457,-63.965,-44.434
1789912297.412883,-26.855,-40.527,-62.500,-31.250
1789912297.416698,-40.039,-37.109,-59.570,-23.926
1789912297.420512,-38.086,-31.250,-53.223,-36.621
1789912297.424326,-23.438,-27.344,-47.852,-28.320
1789912297.428141,-7.324,-29.785,-43.945,-17.578
1789912297.432981,2.930,-27.344,-40.527,-15.625
1789912297.436797,-2.930,-15.137,-35.156,-15.625
1789912297.440613,-18.066,-10.254,-30.762,-0.977
1789912297.444428,-12.695,-13.184,-30.762,9.766
1789912297.448244,-17.578,-17.090,-32.715,-15.625
1789912297.452059,-18.555,-18.066,-33.203,-25.391
1789912297.455875,-10.254,-15.137,-32.715,-8.789
1789912297.459691,-13.184,-13.672,-31.738,4.395
1789912297.463506,-15.625,-11.719,-24.414,10.254
1789912297.467322,-4.883,-4.395,-13.672,2.930
1789912297.471137,2.930,0.488,-11.719,-11.719
1789912297.474953,4.395,-0.977,-17.578,-3.418
1789912297.479685,9.766,3.418,-11.230,6.836
1789912297.483502,15.137,13.184,1.465,16.113
1789912297.487319,26.367,19.043,2.441,13.184
1789912297.491135,12.695,17.090,4.883,18.555
1789912297.494952,-0.488,10.742,4.883,36.621
1789912297.498769,6.348,7.812,1.465,27.344
1789912297.502585,6.836,13.184,1.953,3.418
1789912297.506402,-1.465,17.578,9.766,-9.277
1789912297.510219,5.371,15.625,16.113,9.277
1789912297.514035,9.277,13.184,12.207,30.273
1789912297.517852,9.766,11.230,13.672,6.836
1789912297.521669,16.602,2.930,8.789,6.836
1789912297.526342,-1.465,-1.465,7.812,-5.859
1789912297.530160,-4.883,-0.488,15.625,-14.648
1789912297.533978,-5.371,-1.465,9.766,-14.160
1789912297.537795,-18.066,-4.395,10.254,-15.625
1789912297.541613,-17.090,-4.395,19.531,-15.137
1789912297.545431,-13.184,0.000,23.438,-35.156
1789912297.549248,-19.043,2.930,25.391,-28.809
1789912297.553066,-11.719,0.488,24.902,-20.996
1789912297.556884,3.418,-1.953,23.438,-31.738
1789912297.560702,-6.836,-3.906,29.297,-17.578
1789912297.564519,-30.273,-9.766,33.203,-3.418
1789912297.568337,-33.203,-14.648,29.297,-27.344
1789912297.573485,-24.902,-15.625,32.227,-45.410
1789912297.577304,-28.809,-14.160,39.551,-42.969
1789912297.581124,-23.926,-15.137,42.480,-40.527
1789912297.584943,-6.836,-12.207,47.363,-39.551
1789912297.588762,-18.066,-18.066,49.316,-30.762
1789912297.592582,-18.555,-24.902,49.805,-18.066
1789912297.596401,0.000,-16.602,45.410,-13.672
1789912297.600220,-16.113,-17.578,46.387,-28.809
1789912297.604039,-39.062,-19.531,50.293,-27.832
1789912297.607859,-59.082,-23.438,45.410,-42.969
1789912297.611678,-48.340,-25.879,39.551,-58.105
1789912297.615497,-28.320,-18.555,43.457,-69.336
1789912297.620549,-32.227,-15.625,48.340,-91.309
1789912297.624370,-35.156,-24.902,49.316,-80.566
1789912297.628191,-33.203,-30.273,49.805,-78.125
1789912297.632011,-48.828,-23.926,46.387,-84.473
1789912297.635832,-68.848,-28.320,49.805,-77.148
1789912297.639653,-62.500,-36.621,50.781,-74.707
1789912297.643473,-61.035,-38.086,48.340,-72.266
1789912297.647294,-61.035,-23.438,50.781,-56.152
1789912297.651115,-39.551,-16.602,55.176,-41.992
1789912297.654936,-44.434,-30.273,55.664,-45.410
1789912297.658756,-50.781,-26.855,58.105,-51.758
1789912297.662577,-42.480,-23.438,64.453,-45.898
1789912297.667541,-44.922,-24.902,70.312,-54.688
1789912297.671363,-48.828,-24.902,69.336,-61.523
1789912297.675185,-44.434,-26.855,56.641,-68.848
1789912297.679007,-55.176,-26.367,50.293,-85.938
1789912297.682829,-55.664,-25.391,55.664,-79.590
1789912297.686651,-50.293,-26.367,57.617,-62.012
1789912297.690474,-66.406,-24.902,52.734,-58.594
1789912297.694296,-59.570,-22.949,55.176,-74.219
1789912297.698118,-50.781,-20.508,65.430,-64.941
1789912297.701940,-57.617,-20.508,68.359,-67.383
1789912297.705762,-42.480,-18.066,68.848,-84.961
1789912297.709584,-20.508,-16.602,69.824,-62.500
1789912297.714455,-35.645,-12.207,75.195,-56.152
1789912297.718278,-38.574,-16.602,75.195,-80.566
1789912297.722101,-40.039,-11.719,79.102,-69.336
1789912297.725925,-52.734,3.906,78.613,-42.480
1789912297.729748,-53.711,-9.277,69.336,-56.641
1789912297.733571,-53.711,-17.090,65.918,-81.543
1789912297.737395,-57.129,-16.602,66.895,-68.359
1789912297.741218,-51.758,-12.207,71.289,-61.035
1789912297.745041,-48.340,-3.418,75.195,-62.012
1789912297.748864,-51.758,-2.930,73.730,-78.125
1789912297.752688,-46.387,-9.766,74.219,-91.797
1789912297.756511,-58.105,-15.137,71.777,-89.355
1789912297.761303,-57.617,-11.230,67.871,-45.898
1789912297.765128,-52.734,-5.859,75.195,-41.992
1789912297.768952,-56.152,-7.324,71.777,-72.266
1789912297.772777,-30.762,-11.719,67.871,-65.430
1789912297.776601,-43.457,-14.160,68.359,-78.125
1789912297.780426,-55.176,-14.160,69.336,-89.844
1789912297.784250,-41.992,-8.789,76.172,-80.078
1789912297.788074,-33.203,-9.766,76.172,-80.566
1789912297.791898,-47.363,-13.184,70.801,-77.148
1789912297.795723,-69.336,-14.648,68.359,-63.965
1789912297.799547,-60.059,-12.207,71.777,-78.613
1789912297.803372,-56.641,-11.230,75.195,-77.148
1789912297.808100,-44.922,-8.301,75.684,-78.125
1789912297.811926,-42.480,-7.324,81.543,-93.262
1789912297.815751,-38.086,-6.348,83.496,-87.891
1789912297.819577,-38.574,-3.418,82.031,-82.031
1789912297.823402,-58.105,-9.277,80.078,-91.309
1789912297.827227,-64.453,-13.672,79.102,-73.242
1789912297.831053,-65.430,-13.672,83.496,-65.430
1789912297.834878,-63.477,-8.301,86.426,-78.613
1789912297.838703,-62.500,-9.766,82.031,-73.730
1789912297.842529,-62.012,-12.695,79.590,-71.289
1789912297.846354,-56.641,-7.324,79.590,-68.359
1789912297.850180,-35.156,-10.254,83.008,-78.613
1789912297.854853,-36.133,-14.648,82.520,-97.168
1789912297.858680,-54.688,-14.160,80.078,-90.820
1789912297.862506,-64.453,-16.602,82.520,-61.035
1789912297.866332,-54.199,-18.066,80.566,-67.871
1789912297.870158,-35.645,-12.695,84.473,-89.844
1789912297.873985,-39.062,-7.812,90.820,-81.055
1789912297.877811,-51.270,-7.812,83.496,-59.082
1789912297.881637,-57.129,-9.277,74.219,-56.152
1789912297.885464,-52.734,-17.578,71.289,-72.754
1789912297.889290,-65.430,-29.297,65.918,-82.031
1789912297.893116,-70.801,-23.926,71.289,-61.035
1789912297.896943,-85.449,-20.020,72.266,-55.664
1789912297.901580,-87.402,-26.367,69.824,-87.891
1789912297.905407,-61.035,-24.902,69.824,-84.473
1789912297.909235,-76.172,-29.297,59.082,-81.543
1789912297.913062,-68.359,-32.227,60.059,-88.867
1789912297.916889,-67.383,-30.273,58.105,-90.820
1789912297.920716,-70.312,-30.762,56.641,-93.750
1789912297.924543,-64.941,-29.297,66.406,-95.215
1789912297.928370,-78.613,-21.973,68.848,-100.098
1789912297.932198,-74.707,-19.043,70.312,-84.961
1789912297.936025,-68.359,-20.020,76.172,-84.473
1789912297.939852,-58.594,-21.484,82.031,-83.496
1789912297.943679,-65.430,-24.414,86.426,-71.289
1789912297.948748,-73.242,-23.438,83.008,-66.406
1789912297.952577,-75.684,-19.531,78.125,-56.641
1789912297.956405,-76.172,-18.555,73.242,-65.430
1789912297.960234,-57.129,-20.020,67.871,-99.121
1789912297.964062,-66.895,-22.949,66.406,-95.703
1789912297.967891,-80.078,-22.461,74.707,-78.125
1789912297.971719,-72.266,-17.090,73.730,-67.871
1789912297.975548,-62.500,-15.137,65.918,-78.613
1789912297.979376,-52.734,-15.625,73.730,-67.383
1789912297.983205,-52.734,-5.371,83.496,-50.293
1789912297.987033,-61.523,-2.441,81.055,-77.637
1789912297.990862,-66.406,1.953,77.637,-91.309
1789912297.995796,-67.871,-1.465,78.125,-88.379
1789912297.999626,-73.242,-10.742,83.008,-85.449
1789912298.003456,-77.148,-11.719,82.031,-94.727
1789912298.007285,-81.055,-9.277,82.031,-83.008
1789912298.011115,-82.031,-3.906,87.402,-59.570
1789912298.014945,-81.055,-3.906,82.031,-75.684
1789912298.018774,-73.242,-5.859,74.707,-110.352
1789912298.022604,-68.848,-6.836,71.777,-106.934
1789912298.026434,-67.383,-8.301,69.336,-81.543
1789912298.030263,-61.035,-12.695,69.824,-79.102
1789912298.034093,-60.059,-18.555,72.754,-100.098
1789912298.037923,-53.711,-23.926,76.172,-89.844
1789912298.042802,-33.203,-22.949,79.102,-74.707
1789912298.046633,-55.664,-14.648,79.590,-66.406
1789912298.050464,-86.426,-9.277,70.312,-63.965
1789912298.054295,-82.031,-4.395,72.266,-76.660
1789912298.058125,-67.383,-3.418,82.520,-71.777
1789912298.061956,-82.031,-10.742,77.637,-66.895
1789912298.065787,-69.336,-4.395,78.613,-65.430
1789912298.069618,-38.574,3.418,88.379,-60.059
1789912298.073449,-52.246,0.488,88.867,-52.734
1789912298.077279,-58.594,3.906,87.402,-62.012
1789912298.081110,-44.922,6.348,86.914,-80.566
1789912298.084941,-51.758,2.930,86.914,-77.637
1789912298.089720,-53.711,3.906,91.309,-71.777
1789912298.093551,-47.363,5.859,89.355,-61.035
1789912298.097383,-52.246,1.465,91.309,-60.059
1789912298.101215,-62.500,3.418,91.797,-65.918
1789912298.105047,-74.219,4.883,82.520,-64.941
1789912298.108878,-65.918,-2.930,83.008,-49.316
1789912298.112710,-59.570,-0.488,81.055,-69.336
1789912298.116542,-72.266,4.395,82.520,-78.613
1789912298.120374,-108.398,-6.348,87.891,-57.129
1789912298.124206,-134.766,1.953,86.426,-58.105
1789912298.128037,-177.246,16.113,91.797,-55.664
1789912298.131869,-214.844,12.695,95.215,-46.387
1789912298.136579,-236.816,15.625,86.914,-53.711
1789912298.140412,-271.973,5.859,75.684,-66.406
1789912298.144244,-256.348,-7.812,80.566,-61.523
1789912298.148077,-241.211,-3.418,85.449,-52.734
1789912298.151910,-244.629,-10.742,76.660,-57.129
1789912298.155742,-240.234,-8.789,74.707,-71.777
1789912298.159575,-234.375,-9.277,78.613,-73.730
1789912298.163408,-271.973,-9.277,79.102,-73.242
1789912298.167240,-351.562,-5.371,75.195,-70.801
1789912298.171073,-384.277,-13.184,68.848,-91.797
1789912298.174906,-364.258,-5.859,74.707,-89.844
1789912298.178738,-355.469,-5.371,82.520,-65.430
1789912298.183386,-352.051,-17.578,85.938,-63.477
1789912298.187220,-361.816,-5.371,81.055,-54.688
1789912298.191053,-396.484,10.742,65.918,-63.965
1789912298.194887,-361.816,-14.648,66.895,-87.402
1789912298.198720,-341.797,-23.438,70.801,-88.867
1789912298.202554,-358.398,-19.531,73.730,-73.730
1789912298.206387,-316.895,-24.902,82.520,-77.148
1789912298.210220,-280.762,-40.039,77.637,-92.285
1789912298.214054,-300.781,-50.293,61.523,-105.469
1789912298.217887,-301.270,-47.363,59.570,-104.492
1789912298.221721,-278.320,-39.062,62.988,-101.562
1789912298.225554,-267.578,-30.762,57.617,-114.258
1789912298.230126,-250.977,-49.805,56.641,-91.309
1789912298.233960,-248.047,-56.641,64.453,-102.539
1789912298.237795,-224.121,-65.918,64.453,-125.488
1789912298.241629,-206.543,-83.984,60.547,-123.535
1789912298.245463,-234.863,-84.961,58.594,-147.949
1789912298.249297,-268.555,-51.270,48.340,-156.738
1789912298.253131,-217.285,-89.844,48.828,-143.555
1789912298.256966,-162.598,-148.438,59.082,-130.371
1789912298.260800,-177.734,-147.949,62.988,-132.324
1789912298.264634,-195.312,-127.930,62.988,-147.461
1789912298.268468,-150.879,-128.418,65.430,-153.320
1789912298.272302,-130.371,-152.832,86.426,-149.902
1789912298.276850,0.000,-146.973,103.027,-165.039
1789912298.280684,0.000,-165.039,108.887,-180.664
1789912298.284519,0.000,-166.992,110.840,-189.941
1789912298.288354,0.000,-193.848,118.652,-175.781
1789912298.292189,0.000,-217.773,136.230,-136.230
1789912298.296024,0.000,-219.238,149.902,-143.066
1789912298.299859,0.000,-197.754,145.996,-170.410
1789912298.303694,0.000,-211.426,163.574,-161.133
1789912298.307529,0.000,-250.488,190.918,-140.137
1789912298.311364,0.000,-250.000,189.941,-157.227
1789912298.315199,0.000,-230.469,194.824,-176.270
1789912298.319033,0.000,-254.395,208.496,-179.199
1789912298.323920,352.051,-300.293,222.656,-173.828
1789912298.327756,366.699,-287.598,229.004,-161.133
1789912298.331592,415.527,-318.359,249.512,-145.020
1789912298.335428,512.207,-300.781,258.301,-166.016
1789912298.339264,683.105,-296.387,273.438,-178.711
1789912298.343100,788.086,-362.793,292.969,-172.363
1789912298.346936,746.094,-376.465,269.043,-211.426
1789912298.350772,752.441,-376.953,277.832,-226.562
1789912298.354608,816.895,-405.273,328.125,-178.223
1789912298.358444,885.254,-462.891,307.129,-191.895
1789912298.362280,859.863,-525.879,252.441,-277.344
1789912298.366116,850.586,-562.500,253.906,-286.133
1789912298.370952,931.152,-615.723,248.047,-257.324
1789912298.374789,920.898,-653.320,234.863,-272.461
1789912298.378626,931.152,-660.156,244.141,-262.207
1789912298.382463,973.633,-688.477,265.137,-256.836
1789912298.386300,966.309,-715.820,286.621,-254.883
1789912298.390136,967.773,-733.398,294.922,-215.820
1789912298.393973,967.773,-761.719,286.621,-200.684
1789912298.397810,967.773,-781.250,289.062,-181.152
1789912298.401647,967.773,-790.527,312.988,-127.930
1789912298.405484,967.773,-808.594,324.219,-142.090
1789912298.409321,967.773,-810.547,322.266,-163.574
1789912298.413158,967.773,-809.570,321.289,-149.902
1789912298.417964,0.000,-797.852,317.871,-141.113
1789912298.421802,0.000,-778.809,317.871,-124.023
1789912298.425639,0.000,-759.766,313.965,-130.859
1789912298.429477,0.000,-749.023,313.965,-131.348
1789912298.433315,0.000,-742.676,311.035,-119.629
1789912298.437153,0.000,-718.262,306.641,-101.074
1789912298.440991,0.000,-683.105,304.688,-84.961
1789912298.444829,0.000,-670.898,292.480,-69.824
1789912298.448666,0.000,-661.621,279.785,-52.246
1789912298.452504,0.000,-627.441,269.531,-45.410
1789912298.456342,0.000,-593.262,270.020,-64.453
1789912298.460180,0.000,-560.547,261.230,-75.195
1789912298.464873,841.797,-532.227,252.930,-64.941
1789912298.468712,833.008,-507.324,253.418,-57.617
1789912298.472550,833.496,-480.957,239.258,-71.289
1789912298.476389,803.223,-457.031,226.074,-62.988
1789912298.480228,766.602,-434.570,216.797,-45.898
1789912298.484066,730.469,-414.551,213.379,-30.273
1789912298.487905,693.359,-386.230,209.473,-23.926
1789912298.491743,656.250,-354.980,200.195,-20.020
1789912298.495582,582.520,-345.703,185.059,-16.113
1789912298.499421,514.648,-332.031,169.922,-37.598
1789912298.503259,489.746,-306.152,161.621,-44.922
1789912298.507098,465.820,-280.762,157.227,-52.734
1789912298.511730,408.203,-263.672,159.180,-52.246
1789912298.515569,328.613,-245.117,158.203,-53.223
1789912298.519409,277.832,-225.586,151.367,-53.223
1789912298.523248,228.027,-215.820,143.066,-45.898
1789912298.527087,167.480,-201.660,132.812,-46.875
1789912298.530927,151.367,-182.617,128.906,-30.273
1789912298.534766,160.156,-163.574,121.094,-23.926
1789912298.538605,148.438,-155.273,105.469,-33.691
1789912298.542445,83.496,-157.715,95.703,-31.738
1789912298.546284,55.664,-149.414,83.984,-19.531
1789912298.550123,26.855,-121.094,78.125,-29.785
1789912298.553963,-19.531,-112.305,80.566,-50.781
1789912298.558531,-44.434,-113.281,78.613,-49.316
1789912298.562371,-42.969,-102.051,69.336,-46.387
1789912298.566211,-43.457,-110.840,73.730,-38.086
1789912298.570050,-68.359,-104.980,69.824,-23.438
1789912298.573890,-66.406,-94.238,53.223,-19.043
1789912298.577730,-25.879,-94.238,47.363,-51.270
1789912298.581570,-2.930,-96.191,43.457,-75.195
1789912298.585410,-21.973,-92.285,39.551,-61.035
1789912298.589251,-17.578,-92.773,34.180,-54.199
1789912298.593091,-13.184,-84.961,31.250,-43.945
1789912298.596931,-10.742,-74.219,31.250,-51.270
1789912298.600770,12.207,-74.707,25.391,-47.363
1789912298.605287,17.090,-84.473,23.438,-24.414
1789912298.609128,4.395,-65.430,16.602,-44.434
1789912298.612968,5.371,-53.711,11.719,-61.035
1789912298.616809,33.203,-84.961,15.625,-59.570
1789912298.620649,36.621,-80.078,9.766,-61.523
1789912298.624490,7.812,-76.660,3.418,-58.105
1789912298.628330,25.879,-75.684,1.465,-54.199
1789912298.632171,39.062,-75.195,-2.441,-47.363
1789912298.636012,21.973,-84.961,-8.301,-44.922
1789912298.639853,33.691,-81.055,-12.695,-33.691
1789912298.643693,53.223,-85.449,-11.719,-45.898
1789912298.647534,58.594,-88.867,-10.254,-50.293
1789912298.651997,48.340,-79.590,-12.207,-28.809
1789912298.655838,52.734,-80.566,-20.020,-38.574
1789912298.659679,48.340,-88.867,-25.879,-37.109
1789912298.663521,46.875,-73.730,-20.996,-28.809
1789912298.667362,62.012,-66.895,-17.090,-28.809
1789912298.671203,65.918,-80.566,-15.625,-30.762
1789912298.675044,64.453,-74.707,-21.973,-32.715
1789912298.678885,78.125,-72.266,-24.414,-42.969
1789912298.682727,86.426,-56.641,-14.648,-38.086
1789912298.686568,92.285,-53.223,-18.066,-23.926
1789912298.690409,105.469,-61.523,-23.438,-20.508
1789912298.694250,113.281,-54.688,-23.438,-18.066
1789912298.699068,100.586,-55.664,-20.996,-6.836
1789912298.702910,105.469,-67.871,-15.137,14.648
1789912298.706752,113.281,-60.059,-14.160,25.879
1789912298.710594,113.281,-50.781,-7.324,41.992
1789912298.714436,136.230,-49.805,-7.812,47.852
1789912298.718278,146.973,-36.621,-13.184,27.344
1789912298.722121,142.578,-27.344,1.465,48.340
1789912298.725962,145.996,-28.809,15.625,88.867
1789912298.729805,150.879,-21.484,7.324,85.449
1789912298.733647,140.625,-25.391,6.348,96.680
1789912298.737489,133.301,-25.391,9.766,102.051
1789912298.741331,133.789,-18.066,6.836,92.285
1789912298.746090,141.602,-14.648,4.395,98.145
1789912298.749933,131.836,-12.695,1.953,96.191
1789912298.753776,111.328,-12.695,3.418,107.910
1789912298.757619,110.840,-14.648,10.742,118.164
1789912298.761462,136.230,-4.883,13.672,122.070
1789912298.765305,137.207,-0.488,12.695,132.812
1789912298.769147,108.398,-1.953,8.301,115.234
1789912298.772990,102.051,6.836,4.883,99.121
1789912298.776833,111.816,14.160,20.508,123.535
1789912298.780676,121.582,28.809,27.832,144.531
1789912298.784519,130.859,40.527,25.879,145.020
1789912298.788362,142.090,36.133,33.691,156.250
1789912298.793055,132.812,34.668,29.785,162.109
1789912298.796898,129.883,46.875,24.902,162.598
1789912298.800742,131.348,53.711,17.090,160.156
1789912298.804585,122.070,54.199,13.672,165.527
1789912298.808429,128.418,54.688,21.973,184.570
1789912298.812273,139.648,67.383,18.066,199.707
1789912298.816116,120.117,80.078,5.859,175.781
1789912298.819960,111.816,83.984,8.301,159.180
1789912298.823803,128.906,108.887,28.320,205.566
1789912298.827647,117.188,125.977,39.062,214.844
1789912298.831491,97.168,132.812,36.133,201.172
1789912298.835334,96.191,141.602,32.715,219.238
1789912298.839988,106.445,145.996,29.297,232.910
1789912298.843833,111.816,155.273,24.902,245.605
1789912298.847677,104.980,166.504,20.508,249.023
1789912298.851521,95.703,174.316,14.160,231.934
1789912298.855366,92.285,176.758,10.254,206.055
1789912298.859210,78.613,171.387,6.836,201.660
1789912298.863054,69.824,171.387,0.977,210.938
1789912298.866899,77.148,176.270,3.418,221.680
1789912298.870743,59.570,164.551,-6.836,217.773
1789912298.874587,40.039,153.809,-15.625,206.543
1789912298.878431,25.391,147.949,-17.578,209.473
1789912298.882276,11.719,145.996,-24.902,209.961
1789912298.886857,13.184,145.020,-29.297,208.008
1789912298.890702,8.301,143.066,-27.832,208.496
1789912298.894547,-8.301,140.625,-20.020,210.449
1789912298.898392,-28.809,141.602,-18.066,189.941
1789912298.902237,-42.480,138.184,-24.414,180.176
1789912298.906082,-39.062,131.836,-24.414,190.918
1789912298.909926,-44.434,131.348,-20.508,185.059
1789912298.913771,-47.852,130.371,-20.508,180.176
1789912298.917616,-35.156,129.395,-25.879,176.270
1789912298.921461,-44.434,124.512,-28.320,167.480
1789912298.925306,-51.270,125.977,-26.855,170.898
1789912298.929151,-35.645,123.535,-24.414,173.340
1789912298.933720,0.000,119.629,-23.438,160.645
1789912298.937565,0.000,126.953,-22.949,154.297
1789912298.941411,0.000,122.070,-22.461,163.574
1789912298.945256,0.000,117.188,-22.461,169.922
1789912298.949102,0.000,115.723,-16.602,167.480
1789912298.952947,0.000,116.211,-14.160,163.086
1789912298.956793,0.000,121.094,-12.207,164.551
1789912298.960638,0.000,114.258,-10.742,167.480
1789912298.964484,0.000,106.445,-17.090,133.789
1789912298.968329,0.000,105.957,-20.508,122.559
1789912298.972175,0.000,103.516,-19.043,122.070
1789912298.976020,0.000,102.539,-15.137,116.699
1789912298.980539,-26.367,101.562,-17.578,125.977
1789912298.984385,-27.344,101.074,-24.414,116.211
1789912298.988231,-26.367,100.586,-29.297,101.074
1789912298.992078,-27.832,91.797,-30.273,92.285
1789912298.995924,-44.922,89.355,-23.438,95.703
1789912298.999770,-30.273,88.379,-19.531,97.168
1789912299.003616,-25.879,83.008,-20.996,104.004
1789912299.007462,-46.387,77.148,-31.250,86.426
1789912299.011308,-26.855,75.684,-31.738,60.059
1789912299.015154,-11.719,76.660,-15.625,90.332
1789912299.019000,-19.531,72.754,-11.230,102.539
1789912299.022846,-18.066,71.777,-14.160,69.824
1789912299.027261,-10.742,69.336,-17.090,58.105
1789912299.031108,-11.719,67.871,-16.602,80.078
1789912299.034955,-10.254,69.336,-13.184,83.984
1789912299.038801,-4.395,73.242,-11.230,77.148
1789912299.042648,-8.301,74.707,-14.160,339.355
1789912299.046494,8.301,75.195,-13.184,726.074
1789912299.050341,8.301,69.824,-12.207,924.316
1789912299.054187,-7.812,58.105,-17.090,966.309
1789912299.058034,2.441,57.129,-14.160,964.355
1789912299.061881,11.230,58.594,-13.184,968.750
1789912299.065727,-5.859,54.199,-11.719,968.262
1789912299.069574,-13.184,44.434,-14.160,968.262
1789912299.074351,3.418,41.504,-17.578,968.262
1789912299.078198,10.742,41.992,-13.672,968.262
1789912299.082046,5.859,34.180,-19.043,968.262
1789912299.085893,9.766,34.668,-23.926,968.262
1789912299.089740,31.250,34.180,-22.461,968.262
1789912299.093588,14.648,35.156,-23.438,968.262
1789912299.097435,-7.324,34.668,-23.438,968.262
1789912299.101282,-6.348,25.391,-19.531,968.262
1789912299.105129,-1.465,27.344,-15.137,967.773
1789912299.108977,10.742,40.527,-8.301,968.262
1789912299.112824,1.953,42.480,-10.742,968.262
1789912299.116671,-6.348,41.504,-15.625,966.797
1789912299.121362,-2.930,46.875,-13.184,969.238
1789912299.125210,-16.602,40.039,-21.484,961.914
1789912299.129058,-27.344,34.180,-24.902,923.828
1789912299.132906,-15.137,39.551,-18.555,885.254
1789912299.136754,-18.555,35.156,-22.949,847.168
1789912299.140602,-34.180,28.320,-30.762,798.340
1789912299.144450,-38.574,29.785,-28.809,769.043
1789912299.148298,-37.109,37.109,-20.020,752.441
1789912299.152146,-35.645,39.551,-18.066,743.164
1789912299.155994,-32.715,33.691,-22.461,729.980
1789912299.159842,-34.668,29.785,-22.461,697.754
1789912299.163690,-22.461,22.461,-24.414,673.340
1789912299.168330,-22.949,14.160,-24.902,670.410
1789912299.172178,-45.410,7.812,-23.926,659.668
1789912299.176027,-53.223,4.395,-22.949,657.227
1789912299.179875,-50.293,13.672,-20.020,630.371
1789912299.183724,-35.156,20.996,-16.113,562.988
1789912299.187573,-31.250,17.090,-20.996,537.598
1789912299.191421,-45.410,15.625,-27.344,532.227
1789912299.195270,-46.875,16.602,-28.320,524.902
1789912299.199119,-45.410,15.625,-30.762,527.344
1789912299.202967,-40.039,16.113,-31.250,512.695
1789912299.206816,-24.414,19.531,-29.297,481.934
1789912299.210665,-40.527,14.648,-33.691,468.750
1789912299.215250,-54.688,9.766,-27.832,456.543
1789912299.219100,-42.480,16.602,-14.648,446.777
1789912299.222949,-32.715,20.020,-13.184,434.570
1789912299.226798,-33.203,15.625,-15.137,409.668
1789912299.230647,-47.852,11.719,-12.207,391.113
1789912299.234497,-49.805,11.230,-13.672,383.789
1789912299.238346,-23.926,13.672,-12.695,383.789
1789912299.242195,-12.695,20.508,-10.742,383.301
1789912299.246044,-19.043,18.066,-11.719,377.441
1789912299.249893,-8.301,17.578,-9.766,371.582
1789912299.253743,-4.883,22.949,-13.672,357.910
1789912299.257592,-7.812,21.484,-17.090,338.867
1789912299.262114,-10.742,22.461,-20.508,340.820
1789912299.265964,-16.602,26.855,-20.020,356.445
1789912299.269814,-22.949,23.438,-16.602,354.492
1789912299.273663,-20.508,29.297,-20.020,336.914
1789912299.277513,-12.695,32.715,-18.555,330.078
1789912299.281363,-27.832,22.949,-22.461,321.289
1789912299.285213,-28.320,21.973,-26.367,302.246
1789912299.289062,-18.555,26.367,-22.949,310.059
1789912299.292912,-23.926,27.832,-22.949,319.336
1789912299.296762,0.000,32.715,-23.438,296.387
1789912299.300611,8.301,32.227,-22.949,280.762
1789912299.304461,-0.977,32.227,-23.438,290.527
1789912299.308929,-0.977,31.738,-21.484,299.805
1789912299.312780,0.488,30.273,-19.531,284.668
1789912299.316630,7.324,34.668,-20.996,266.602
1789912299.320480,15.137,33.691,-18.555,273.926
1789912299.324330,23.438,40.039,-7.324,284.180
1789912299.328181,29.297,45.898,-5.371,271.973
1789912299.332031,26.367,41.992,-8.789,268.066
1789912299.335881,27.344,35.645,-9.277,276.367
1789912299.339731,32.227,37.109,-13.184,266.113
1789912299.343581,19.531,41.992,-11.719,259.277
1789912299.347432,15.137,44.434,-15.625,259.277
1789912299.351282,10.254,41.992,-20.508,253.906
1789912299.355688,2.930,34.668,-20.020,249.512
1789912299.359539,-0.977,29.785,-22.949,233.887
1789912299.363389,-5.371,23.926,-27.344,222.656
1789912299.367240,3.906,23.926,-26.855,215.332
1789912299.371091,5.371,23.926,-21.973,218.750
1789912299.374941,15.625,24.414,-21.973,231.445
1789912299.378792,21.484,31.250,-19.531,239.258
1789912299.382643,4.395,29.785,-12.207,221.191
1789912299.386493,3.418,21.484,-14.160,216.309
1789912299.390344,16.602,17.578,-20.020,212.402
1789912299.394194,4.883,16.113,-18.066,201.172
1789912299.398045,-12.695,13.184,-16.602,203.125
1789912299.402414,-0.977,12.695,-13.184,195.801
1789912299.406265,6.836,13.672,-16.602,187.988
1789912299.410116,-8.789,13.184,-15.625,184.570
1789912299.413967,-2.930,8.301,-8.301,193.848
1789912299.417818,9.277,14.648,-11.719,195.801
1789912299.421669,0.977,17.090,-22.949,169.434
1789912299.425520,-14.648,12.695,-27.832,173.340
1789912299.429371,-9.277,16.113,-31.250,152.832
1789912299.433222,-2.441,17.578,-35.645,112.793
1789912299.437073,-18.555,16.602,-38.086,115.234
1789912299.440924,-25.391,19.531,-39.551,110.352
1789912299.444775,-10.254,11.719,-38.574,99.121
1789912299.449470,-21.973,5.859,-41.992,83.984
1789912299.453321,-40.039,6.348,-36.621,88.379
1789912299.457173,-28.809,2.930,-30.762,102.539
1789912299.461025,-24.902,-2.930,-35.156,102.051
1789912299.464876,-21.973,-1.953,-37.109,110.840
1789912299.468728,-21.973,-4.395,-44.434,99.609
1789912299.472580,-30.273,-15.625,-50.781,73.730
1789912299.476431,-17.578,-18.066,-45.898,88.379
1789912299.480283,-16.113,-13.672,-43.945,111.816
1789912299.484135,-22.949,-9.766,-43.457,111.328
1789912299.487987,-9.766,-12.695,-45.898,105.957
1789912299.491838,-5.859,-14.160,-46.875,111.816
1789912299.496473,-13.672,-13.672,-44.922,117.188
1789912299.500325,-25.879,-9.766,-37.109,121.582
1789912299.504177,-20.020,-7.812,-36.133,120.605
1789912299.508029,-21.973,-10.742,-42.969,110.840
1789912299.511882,-14.160,-9.766,-40.039,98.145
1789912299.515734,8.789,-5.859,-36.133,102.051
1789912299.519586,-5.859,-3.418,-37.598,117.188
1789912299.523438,-8.301,2.930,-35.645,125.488
1789912299.527291,12.207,8.789,-29.297,147.949
1789912299.531143,4.883,5.371,-28.809,142.090
1789912299.534995,-17.578,1.465,-32.715,114.258
1789912299.538847,-4.883,2.930,-38.574,124.512
1789912299.543427,2.441,1.953,-45.898,124.023
1789912299.547280,-8.301,-3.418,-51.758,119.141
1789912299.551132,-10.254,-3.418,-47.363,127.441
1789912299.554985,-20.020,-7.812,-44.922,122.070
1789912299.558838,-10.254,-9.277,-42.480,110.352
1789912299.562691,-12.695,-6.836,-36.621,101.562
1789912299.566544,-36.133,-9.277,-40.039,101.074
1789912299.570396,-24.902,-10.254,-36.621,108.887
1789912299.574249,-19.531,-8.789,-37.598,119.629
1789912299.578102,-31.250,-7.324,-39.062,119.141
1789912299.581955,-23.926,-6.348,-38.086,123.047
1789912299.585808,-11.719,0.000,-32.227,135.254
1789912299.590353,-9.766,-1.465,-27.832,128.418
1789912299.594206,-15.137,-3.418,-31.250,118.164
1789912299.598059,-23.438,4.883,-29.785,117.188
1789912299.601912,-21.484,4.883,-24.902,122.070
1789912299.605766,-16.113,-0.977,-26.367,104.980
1789912299.609619,-27.832,-6.836,-30.273,93.262
1789912299.613472,-30.273,-3.906,-24.902,124.512
1789912299.617326,-23.926,-1.953,-18.555,144.531
1789912299.621179,-24.414,-9.766,-24.902,106.934
1789912299.625032,-21.973,-13.672,-35.156,89.844
1789912299.628886,-14.160,-4.883,-32.715,103.516
1789912299.632739,-4.883,-2.441,-27.832,108.398
1789912299.637222,4.883,-9.766,-31.738,109.863
1789912299.641076,5.859,-6.836,-32.715,104.492
1789912299.644930,-8.789,-3.906,-33.203,95.215
1789912299.648783,-25.879,-8.789,-33.691,88.867
1789912299.652637,-19.043,-9.766,-25.879,89.844
1789912299.656491,-14.160,-5.371,-22.461,96.191
1789912299.660345,-26.855,-8.301,-28.320,100.586
1789912299.664199,-36.621,-10.254,-30.273,106.934
1789912299.668052,-37.598,-7.812,-33.691,86.914
1789912299.671906,-25.879,-9.766,-33.203,67.383
1789912299.675760,-18.555,-12.695,-28.320,97.168
1789912299.679614,-20.996,-8.301,-34.668,107.910
1789912299.684110,-25.391,-4.395,-39.551,0.000
1789912299.687964,-21.973,-8.789,-35.156,0.000
1789912299.691818,-28.320,-15.137,-29.785,0.000
1789912299.695672,-48.828,-13.672,-30.273,0.000
1789912299.699527,-63.965,-15.625,-35.156,0.000
1789912299.703381,-51.758,-12.695,-31.250,0.000
1789912299.707235,-57.617,-8.301,-30.762,0.000
1789912299.711089,-78.613,-9.766,-36.621,0.000
1789912299.714944,-83.984,-14.160,-42.480,0.000
1789912299.718798,-89.844,-20.508,-42.480,0.000
1789912299.722652,-91.309,-23.438,-39.551,0.000
1789912299.726506,-89.355,-21.973,-41.016,0.000
1789912299.730896,-85.938,-15.625,-41.016,58.594
1789912299.734750,-77.148,-8.301,-33.203,74.707
1789912299.738605,-68.848,-9.766,-31.738,68.848
1789912299.742459,-63.477,-13.672,-29.785,45.898
1789912299.746314,-72.754,-9.766,-29.785,47.852
1789912299.750169,-93.262,-8.789,-30.273,67.871
1789912299.754023,-112.793,-7.324,-24.902,62.012
1789912299.757878,-105.957,-5.371,-22.949,50.293
1789912299.761733,-87.402,-5.859,-20.020,50.781
1789912299.765587,-80.078,-13.672,-29.297,56.152
1789912299.769442,-73.730,-14.648,-28.809,70.312
1789912299.773296,-81.543,-16.113,-25.391,66.406
1789912299.777647,-94.238,-18.555,-28.809,57.129
1789912299.781502,-85.938,-19.043,-27.832,52.246
1789912299.785357,-71.289,-19.531,-27.832,47.852
1789912299.789212,-54.688,-11.719,-25.879,54.688
1789912299.793067,-58.594,-19.531,-34.180,45.410
1789912299.796922,-67.383,-27.344,-40.039,38.574
1789912299.800777,-65.918,-24.414,-39.062,59.082
1789912299.804632,-49.805,-23.438,-35.645,62.988
1789912299.808487,-25.391,-21.973,-35.645,61.523
1789912299.812342,-36.621,-17.090,-36.133,59.570
1789912299.816197,-40.039,-14.160,-36.621,48.828
1789912299.820052,-35.645,-13.672,-36.133,28.320
1789912299.824687,-33.691,-7.812,-29.785,25.391
1789912299.828542,-29.297,-2.441,-24.902,53.223
1789912299.832398,-38.086,-0.977,-26.855,55.176
1789912299.836253,-49.316,-1.953,-36.133,28.809
1789912299.840109,-50.781,0.977,-31.250,35.645
1789912299.843964,-28.320,9.277,-23.438,49.805
1789912299.847820,-12.207,12.695,-28.809,51.758
1789912299.851675,-23.438,13.184,-30.273,54.199
1789912299.855531,-32.227,21.484,-26.367,48.340
1789912299.859386,-35.156,23.926,-25.879,43.945
1789912299.863242,-34.668,20.996,-25.879,54.688
1789912299.867097,-31.250,22.461,-26.855,51.270
1789912299.871677,-27.832,26.855,-29.297,56.641
1789912299.875533,-3.906,31.250,-27.344,67.871
1789912299.879389,2.930,34.180,-23.926,59.570
1789912299.883245,-6.348,30.762,-27.344,59.570
1789912299.887101,-11.230,30.273,-28.809,56.152
1789912299.890957,-2.930,35.645,-23.438,63.965
1789912299.894813,-9.277,28.809,-22.949,62.012
1789912299.898669,-20.508,28.320,-25.391,58.105
1789912299.902525,-16.602,27.344,-21.973,61.523
1789912299.906381,-20.996,21.484,-17.090,75.195
1789912299.910238,-21.484,27.344,-17.090,71.289
1789912299.914093,-28.809,28.320,-26.367,47.852
1789912299.918624,-41.504,24.902,-32.227,51.758
1789912299.922480,-43.457,27.344,-24.902,46.387
1789912299.926337,-29.785,25.879,-22.949,48.828
1789912299.930193,-18.066,23.926,-30.273,47.363
1789912299.934050,-23.438,21.484,-30.762,38.574
1789912299.937906,-45.410,19.531,-29.297,49.805
1789912299.941763,-55.664,23.926,-30.273,54.199
1789912299.945619,-62.500,22.461,-35.156,43.945
1789912299.949476,-60.547,19.043,-36.621,58.594
1789912299.953332,-56.152,22.461,-30.762,59.570
1789912299.957189,-45.410,33.691,-30.273,46.387
1789912299.961045,-26.855,31.250,-23.438,72.266
1789912299.965548,-30.273,28.320,-19.043,91.797
1789912299.969405,-39.062,31.738,-25.391,53.223
1789912299.973262,-36.621,24.414,-24.414,23.926
1789912299.977118,-43.945,21.484,-26.855,18.555
1789912299.980976,-53.223,19.531,-33.691,13.672
1789912299.984833,-62.500,22.949,-32.715,9.766
1789912299.988689,-73.730,21.973,-43.945,-14.648
1789912299.992546,-79.590,12.207,-46.875,-9.277
1789912299.996403,-90.332,10.742,-34.668,8.789
1789912300.000260,-99.121,23.438,-35.645,-5.371
1789912300.004117,-80.566,36.621,-35.645,-21.973
1789912300.007974,-61.523,38.086,-25.879,-42.480
1789912300.012414,-79.102,41.504,-28.809,-70.312
1789912300.016271,-82.031,46.387,-28.809,-83.496
1789912300.020128,-71.777,41.992,-28.809,-65.918
1789912300.023986,-70.312,41.016,-44.434,-59.082
1789912300.027843,-81.055,48.828,-48.828,-51.758
1789912300.031700,-65.918,41.016,-49.805,-35.645
1789912300.035558,-57.617,28.809,-53.711,-27.344
1789912300.039415,-78.125,29.297,-60.547,-32.227
1789912300.043272,-81.543,26.855,-74.707,-62.500
1789912300.047130,-52.734,26.855,-76.660,-49.316
1789912300.050987,-29.785,25.391,-76.172,-25.879
1789912300.054844,-38.574,20.020,-81.543,-30.762
1789912300.059227,-28.320,11.719,-82.520,-19.043
1789912300.063085,-18.555,7.812,-89.844,-0.977
1789912300.066942,-18.066,-1.953,-98.633,-0.488
1789912300.070800,10.254,-10.254,-99.609,18.555
1789912300.074658,39.551,-10.742,-106.445,54.199
1789912300.078516,22.461,-17.090,-113.770,59.082
1789912300.082373,19.043,-26.367,-114.746,55.664
1789912300.086231,33.203,-30.273,-106.445,87.402
1789912300.090089,46.875,-31.250,-98.145,83.984
1789912300.093946,68.848,-32.715,-100.098,76.172
1789912300.097804,59.570,-38.574,-103.027,91.797
1789912300.101662,47.363,-41.016,-106.445,87.402
1789912300.106035,69.336,-44.434,-104.004,102.539
1789912300.109893,91.309,-52.246,-94.727,131.348
1789912300.113751,85.938,-53.711,-99.121,137.207
1789912300.117609,86.426,-55.664,-93.262,148.438
1789912300.121467,87.891,-60.059,-85.938,148.438
1789912300.125325,75.195,-62.500,-107.422,133.301
1789912300.129183,76.660,-63.965,-114.746,141.113
1789912300.133041,75.195,-62.500,-105.469,128.906
1789912300.136899,60.547,-56.152,-104.004,111.328
1789912300.140758,61.523,-59.082,-100.586,112.305
1789912300.144616,55.176,-68.359,-105.469,117.188
1789912300.148474,33.691,-77.148,-110.352,108.398
1789912300.152789,29.785,-75.195,-104.492,103.516
1789912300.156647,33.691,-70.312,-102.539,111.328
1789912300.160506,27.344,-73.730,-101.074,117.188
1789912300.164364,32.227,-69.824,-95.215,99.609
1789912300.168222,42.969,-63.965,-91.309,84.961
1789912300.172081,28.809,-62.012,-90.820,85.449
1789912300.175939,22.461,-57.129,-88.867,87.891
1789912300.179797,39.062,-52.246,-78.613,103.516
1789912300.183656,42.480,-48.340,-67.383,101.074
1789912300.187514,34.668,-45.898,-65.430,101.562
1789912300.191373,31.738,-46.875,-61.523,108.887
1789912300.195231,20.020,-49.805,-53.711,101.562
1789912300.199814,12.207,-49.805,-47.363,106.934
1789912300.203673,7.812,-50.781,-59.570,109.863
1789912300.207531,7.812,-49.316,-69.336,89.355
1789912300.211390,14.160,-42.969,-68.848,80.078
1789912300.215249,18.066,-42.480,-70.801,90.332
1789912300.219108,21.484,-43.945,-65.918,84.473
1789912300.222967,0.488,-42.480,-63.965,70.312
1789912300.226826,-20.020,-49.316,-66.895,72.266
1789912300.230685,-7.812,-50.781,-58.105,80.566
1789912300.234543,6.348,-47.852,-54.199,97.656
1789912300.238402,10.742,-47.852,-56.641,89.355
1789912300.242261,10.742,-41.504,-48.340,74.219
1789912300.246809,7.812,-40.527,-54.688,67.871
1789912300.250669,-5.859,-42.969,-64.941,57.617
1789912300.254528,-19.043,-41.992,-56.641,48.828
1789912300.258387,-22.461,-40.039,-48.828,50.293
1789912300.262246,-13.184,-34.180,-44.922,55.176
1789912300.266106,4.395,-34.180,-41.016,47.852
1789912300.269965,4.395,-31.738,-39.551,48.340
1789912300.273824,-6.348,-35.156,-46.387,45.898
1789912300.277683,-17.578,-45.898,-54.688,50.781
1789912300.281543,-24.902,-40.039,-52.734,68.848
1789912300.285402,-20.020,-36.133,-47.852,59.570
1789912300.289261,-27.344,-37.109,-47.852,45.898
1789912300.293751,-28.809,-34.668,-48.828,51.758
1789912300.297610,-32.227,-39.062,-53.223,42.480
1789912300.301470,-42.480,-39.062,-53.223,43.457
1789912300.305330,-32.227,-35.645,-43.945,57.617
1789912300.309189,-33.691,-39.062,-45.898,49.316
1789912300.313049,-45.898,-43.457,-48.340,57.129
1789912300.316909,-28.320,-31.250,-45.410,58.105
1789912300.320768,-32.227,-27.832,-42.969,50.781
1789912300.324628,-27.344,-31.250,-38.574,56.641
1789912300.328488,3.418,-25.391,-35.645,64.941
1789912300.332347,-8.301,-34.668,-34.668,63.477
1789912300.336207,-39.062,-46.875,-42.480,35.156
1789912300.340680,-30.273,-42.480,-35.645,46.387
1789912300.344540,-14.648,-39.551,-12.695,69.336
1789912300.348400,-24.902,-42.969,-19.531,63.965
1789912300.352260,-21.484,-48.340,-41.016,59.570
1789912300.356120,-6.836,-46.387,-31.738,77.637
1789912300.359980,-2.441,-40.039,-18.066,85.449
1789912300.363840,-2.930,-39.062,-34.180,72.266
1789912300.367700,3.418,-34.668,-37.598,76.660
1789912300.371560,-1.953,-27.832,-29.785,75.195
1789912300.375421,-4.883,-28.320,-30.273,74.707
1789912300.379281,10.254,-25.391,-26.367,87.891
1789912300.383141,11.719,-26.367,-26.855,87.402
1789912300.387551,6.836,-23.438,-28.320,91.797
1789912300.391412,6.836,-20.996,-33.691,96.191
1789912300.395272,15.625,-20.508,-37.109,97.656
1789912300.399132,30.273,-9.277,-30.273,82.520
1789912300.402993,16.602,-12.207,-31.250,62.988
1789912300.406853,6.348,-14.648,-33.203,72.754
1789912300.410714,7.812,-14.648,-27.832,90.332
1789912300.414574,-0.488,-15.625,-26.855,90.332
1789912300.418435,-1.465,-16.602,-30.273,81.055
1789912300.422295,-5.371,-21.484,-31.250,68.359
1789912300.426156,0.977,-20.020,-32.715,71.289
1789912300.430016,-1.953,-23.438,-35.645,71.777
1789912300.434381,-3.418,-21.973,-34.180,54.199
1789912300.438242,4.883,-13.672,-34.180,42.969
1789912300.442103,0.488,-20.996,-40.039,44.434
1789912300.445963,0.488,-27.344,-42.480,55.176
1789912300.449824,9.277,-22.949,-39.551,53.223
1789912300.453685,0.977,-25.879,-38.086,46.875
1789912300.457546,-14.160,-30.273,-46.387,45.410
1789912300.461406,-22.949,-30.273,-50.293,43.945
1789912300.465267,-18.555,-30.273,-44.922,58.105
1789912300.469128,-7.812,-20.996,-43.457,76.172
1789912300.472989,-9.277,-20.020,-44.922,51.758
1789912300.476850,-13.672,-20.508,-45.410,55.176
1789912300.481179,-9.277,-16.602,-45.410,66.895
1789912300.485041,-20.996,-21.484,-42.969,57.129
1789912300.488902,-23.926,-25.879,-51.758,57.617
1789912300.492763,-13.184,-29.785,-56.152,36.621
1789912300.496624,-10.742,-27.344,-46.875,15.137
1789912300.500485,-20.020,-25.391,-43.945,31.738
1789912300.504346,-28.809,-34.180,-52.734,33.203
1789912300.508207,-29.785,-38.086,-64.453,13.672
1789912300.512068,-21.973,-36.133,-75.684,19.043
1789912300.515929,-5.371,-41.504,-68.848,42.480
1789912300.519790,-17.578,-48.828,-54.688,43.457
1789912300.523651,-46.875,-43.457,-52.246,17.090
1789912300.527932,-64.941,-41.016,-51.758,-0.977
1789912300.531793,-81.055,-44.434,-42.480,-13.184
1789912300.535655,-101.562,-53.223,-34.668,-31.738
1789912300.539516,-120.117,-55.176,-35.156,-54.199
1789912300.543377,-134.766,-56.641,-27.832,-70.312
1789912300.547238,-160.645,-66.895,-28.809,-93.750
1789912300.551100,-187.012,-64.941,-31.250,-91.309
1789912300.554961,-187.988,-61.035,-26.367,-97.168
1789912300.558822,-190.918,-67.383,-20.996,-115.234
1789912300.562684,-206.055,-63.965,-14.160,-104.004
1789912300.566545,-206.055,-60.059,-3.906,-88.867
1789912300.570406,-207.031,-62.012,0.488,-98.145
1789912300.574963,-208.984,-56.152,1.465,-124.512
1789912300.578825,-223.145,-54.688,7.324,-125.977
1789912300.582686,-222.168,-57.617,5.859,-112.305
1789912300.586548,-208.008,-60.547,2.441,-102.539
1789912300.590410,-209.961,-58.594,3.418,-104.980
1789912300.594272,-200.195,-56.641,-0.977,-123.535
1789912300.598134,-195.312,-60.547,-5.859,-141.602
1789912300.601995,-206.055,-63.965,-7.324,-125.000
1789912300.605857,-204.102,-67.383,-9.766,-103.027
1789912300.609719,-181.641,-61.523,-14.648,-83.984
1789912300.613580,-165.527,-63.477,-24.414,-83.984
1789912300.617442,-153.320,-70.312,-27.832,-93.750
1789912300.621967,-133.789,-64.453,-27.344,-80.566
1789912300.625829,-134.277,-59.570,-23.926,-62.988
1789912300.629691,-129.395,-60.547,-21.973,-45.898
1789912300.633553,-96.191,-58.594,-22.461,-11.719
1789912300.637415,-83.984,-51.758,-22.949,8.301
1789912300.641278,-80.566,-46.387,-29.297,-14.648
1789912300.645140,-75.684,-53.223,-37.109,-28.320
1789912300.649002,-68.848,-59.082,-38.574,-6.348
1789912300.652864,-63.965,-56.152,-40.527,12.207
1789912300.656726,-55.664,-50.293,-41.016,17.578
1789912300.660588,-39.551,-44.922,-38.086,14.160
1789912300.664450,-33.691,-47.363,-43.945,21.484
1789912300.668907,-33.203,-54.199,-44.434,39.551
1789912300.672770,-29.785,-58.594,-43.945,53.223
1789912300.676632,-20.996,-58.594,-46.875,53.711
1789912300.680495,-21.484,-59.570,-50.781,51.270
1789912300.684358,-20.020,-54.199,-47.363,57.129
1789912300.688220,-15.625,-49.805,-45.410,60.059
1789912300.692083,-13.672,-49.316,-44.434,52.734
1789912300.695945,-12.207,-50.293,-45.410,47.363
1789912300.699808,-6.348,-50.293,-55.664,53.711
1789912300.703670,1.953,-42.480,-56.152,60.547
1789912300.707533,-8.789,-36.133,-43.945,71.289
1789912300.711395,-16.113,-34.668,-44.922,65.430
1789912300.715808,-10.254,-32.715,-46.387,61.523
1789912300.719671,-3.418,-25.879,-42.969,67.871
1789912300.723534,2.441,-20.996,-43.945,65.430
1789912300.727396,15.137,-21.484,-40.527,77.148
1789912300.731259,23.926,-22.461,-26.367,78.125
1789912300.735122,26.367,-21.973,-24.902,77.637
1789912300.738985,26.855,-17.090,-24.902,88.379
1789912300.742848,30.762,-14.160,-19.531,89.844
1789912300.746711,30.762,-20.020,-25.879,78.125
1789912300.750574,26.855,-21.484,-29.785,74.707
1789912300.754436,12.695,-20.996,-27.832,72.266
1789912300.758299,1.953,-24.902,-32.227,64.941
1789912300.762674,-3.906,-28.809,-35.645,67.871
1789912300.766537,-2.930,-26.855,-38.574,57.129
1789912300.770400,3.418,-24.414,-41.504,56.152
1789912300.774263,-7.324,-27.832,-36.621,62.988
1789912300.778127,-16.113,-32.227,-34.668,63.477
1789912300.781990,-6.836,-31.250,-40.527,57.617
1789912300.785853,8.789,-23.926,-35.645,54.688
1789912300.789716,16.113,-26.367,-26.367,61.523
1789912300.793579,2.930,-33.691,-43.457,53.223
1789912300.797442,-15.137,-36.133,-54.688,41.504
1789912300.801306,-18.066,-40.527,-48.340,49.316
1789912300.805169,-21.973,-47.363,-48.340,44.922
1789912300.809509,-24.414,-43.457,-46.387,50.781
1789912300.813373,-16.113,-34.180,-41.016,64.941
1789912300.817236,-6.348,-37.598,-33.691,66.406
1789912300.821100,-9.766,-38.574,-33.203,66.406
1789912300.824963,-16.602,-42.480,-36.133,59.570
1789912300.828827,-21.973,-46.387,-39.551,55.176
1789912300.832690,-22.949,-43.945,-43.457,76.172
1789912300.836554,-31.250,-45.410,-43.945,87.891
1789912300.840417,-45.898,-49.316,-40.039,70.312
1789912300.844280,-53.223,-44.434,-38.574,83.984
1789912300.848144,-45.898,-41.504,-43.945,70.801
1789912300.852007,-51.270,-41.504,-46.875,31.738
1789912300.856310,-50.293,-37.109,-44.434,32.227
1789912300.860174,-33.691,-31.250,-32.715,54.688
1789912300.864038,-40.039,-24.902,-28.809,63.477
1789912300.867901,-68.359,-28.320,-38.574,34.180
1789912300.871765,-79.102,-34.180,-42.480,14.160
1789912300.875629,-61.523,-40.527,-42.480,23.926
1789912300.879492,-55.664,-36.133,-42.969,31.250
1789912300.883356,-65.430,-30.273,-48.828,21.973
1789912300.887220,-71.777,-31.250,-58.594,9.766
1789912300.891083,-58.594,-31.250,-57.129,18.066
1789912300.894947,-58.594,-34.668,-53.711,26.367
1789912300.898811,-64.941,-40.527,-53.223,31.738
1789912300.903072,-60.547,-38.574,-52.734,39.062
1789912300.906936,-56.152,-32.715,-45.898,42.480
1789912300.910800,-39.062,-32.715,-36.621,46.387
1789912300.914664,-27.344,-32.715,-35.645,41.992
1789912300.918528,-35.645,-25.391,-33.203,44.434
1789912300.922392,-42.969,-25.879,-34.180,61.035
1789912300.926256,-31.250,-32.715,-45.410,48.828
1789912300.930120,-36.621,-37.109,-48.828,30.762
1789912300.933984,-40.039,-41.992,-47.852,46.387
1789912300.937848,-28.320,-44.922,-54.688,60.059
1789912300.941712,-32.227,-31.250,-59.082,50.293
1789912300.945576,-38.574,-32.715,-54.199,36.621
1789912300.950089,0.000,-43.945,-43.945,39.062
1789912300.953954,0.000,-40.039,-43.457,46.875
1789912300.957818,0.000,-34.668,-44.922,45.898
1789912300.961682,0.000,-30.762,-42.480,54.688
1789912300.965547,0.000,-20.020,-47.852,66.895
1789912300.969411,0.000,-15.137,-48.828,70.312
1789912300.973275,0.000,-19.043,-45.410,67.383
1789912300.977140,0.000,-16.113,-43.945,48.340
1789912300.981004,0.000,-11.719,-45.898,41.016
1789912300.984869,0.000,-11.230,-45.410,61.035
1789912300.988733,0.000,-17.090,-45.410,56.152
1789912300.992597,0.000,-20.508,-49.805,41.016
1789912300.997079,7.812,-21.484,-47.363,42.969
1789912301.000944,5.859,-16.602,-46.387,52.734
1789912301.004808,14.160,-12.207,-44.922,65.430
1789912301.008673,13.184,-10.254,-40.039,60.547
1789912301.012538,11.719,-14.648,-41.016,56.152
1789912301.016402,26.367,-21.484,-42.480,60.059
1789912301.020267,26.367,-24.414,-46.387,67.871
1789912301.024132,11.719,-20.996,-48.340,66.895
1789912301.027997,9.277,-17.090,-36.621,63.965
1789912301.031861,4.395,-21.484,-35.645,69.824
1789912301.035726,6.836,-29.785,-54.199,66.406
1789912301.039591,14.160,-22.461,-55.176,55.664
1789912301.044025,6.348,-20.996,-45.410,51.758
1789912301.047890,7.812,-27.344,-43.457,43.945
1789912301.051755,19.531,-25.391,-44.922,47.363
1789912301.055620,12.207,-29.785,-47.852,59.570
1789912301.059485,-13.672,-27.832,-45.898,48.340
1789912301.063350,-24.414,-27.344,-44.922,41.992
1789912301.067215,-8.301,-30.762,-44.434,63.477
1789912301.071080,-23.438,-36.133,-45.898,45.410
1789912301.074945,-22.949,-38.574,-47.852,32.227
1789912301.078810,-12.207,-28.809,-39.551,46.875
1789912301.082675,-18.066,-14.648,-37.109,38.086
1789912301.086540,-21.973,-26.367,-52.246,25.879
1789912301.090926,-39.062,-45.410,-48.828,15.137
1789912301.094791,-47.852,-49.805,-53.711,14.648
1789912301.098656,-35.156,-50.293,-64.453,26.855
1789912301.102522,-26.367,-43.457,-58.105,33.691
1789912301.106387,-25.391,-40.039,-60.059,42.480
1789912301.110252,-20.020,-40.527,-55.664,39.062
1789912301.114118,-38.086,-31.738,-53.711,22.949
1789912301.117983,-50.293,-32.715,-60.547,21.973
1789912301.121848,-50.293,-51.758,-57.617,18.066
1789912301.125714,-45.898,-47.852,-53.711,22.949
1789912301.129579,-36.133,-37.109,-59.570,25.391
1789912301.133444,-24.902,-36.621,-63.965,9.766
1789912301.137796,-6.836,-41.504,-62.988,5.859
1789912301.141661,-9.277,-44.434,-58.105,9.766
1789912301.145527,-9.277,-39.062,-49.805,31.250
1789912301.149392,-4.883,-39.551,-49.805,36.621
1789912301.153258,-9.277,-47.363,-60.547,21.484
1789912301.157124,-23.438,-47.852,-67.871,21.484
1789912301.160989,-31.250,-41.504,-53.223,24.414
1789912301.164855,-29.297,-38.086,-46.387,23.438
1789912301.168720,-21.973,-37.109,-69.824,26.855
1789912301.172586,-17.090,-29.785,-70.801,25.391
1789912301.176452,-21.484,-31.250,-51.758,27.832
1789912301.180317,-19.043,-41.504,-58.594,29.297
1789912301.184644,-17.090,-44.922,-76.172,29.297
1789912301.188510,-20.020,-46.387,-72.266,24.414
1789912301.192376,-18.066,-43.945,-63.965,37.598
1789912301.196242,-26.367,-42.969,-63.965,40.039
1789912301.200108,-27.832,-41.016,-63.965,26.855
1789912301.203974,-31.250,-35.645,-55.176,34.180
1789912301.207840,-39.062,-35.645,-51.270,35.645
1789912301.211706,-30.762,-44.434,-59.570,30.273
1789912301.215571,-23.438,-45.410,-59.570,41.504
1789912301.219437,-26.855,-37.109,-56.641,54.688
1789912301.223303,-31.738,-30.273,-58.105,40.039
1789912301.227169,-31.250,-31.250,-57.617,24.414
1789912301.231434,-40.039,-35.156,-58.594,8.789
1789912301.235300,-33.691,-35.156,-58.594,10.742
1789912301.239166,-24.902,-39.551,-60.059,30.762
1789912301.243032,-27.832,-28.320,-57.129,39.062
1789912301.246898,-20.020,-20.996,-49.805,41.016
1789912301.250764,-22.461,-42.969,-59.082,33.203
1789912301.254630,-21.484,-41.992,-63.965,37.109
1789912301.258497,-28.809,-32.227,-61.523,31.738
1789912301.262363,-39.551,-36.133,-62.500,26.367
1789912301.266229,-33.203,-40.527,-61.523,23.438
1789912301.270095,-37.598,-40.527,-62.988,17.578
1789912301.273961,-44.922,-44.922,-64.941,20.508
1789912301.278191,-50.781,-46.387,-66.406,22.461
1789912301.282058,-47.363,-44.922,-64.453,29.297
1789912301.285924,-41.016,-49.805,-69.336,40.039
1789912301.289790,-52.734,-53.711,-77.148,30.273
1789912301.293657,-44.922,-50.293,-77.148,14.160
1789912301.297523,-30.762,-52.246,-83.984,11.719
1789912301.301389,-33.203,-59.082,-82.031,24.414
1789912301.305255,-34.668,-60.059,-68.848,33.203
1789912301.309122,-45.410,-58.594,-67.871,25.879
1789912301.312988,-55.664,-55.664,-72.754,31.250
1789912301.316854,-53.711,-60.547,-76.660,41.016
1789912301.320721,-41.992,-58.594,-73.730,40.039
1789912301.325205,-47.363,-61.035,-74.219,31.250
1789912301.329072,-61.523,-64.453,-79.102,29.785
1789912301.332938,-56.641,-63.477,-83.984,26.855
1789912301.336805,-43.945,-65.430,-88.379,18.555
1789912301.340671,-62.012,-62.988,-95.215,13.672
1789912301.344538,-73.242,-62.988,-104.004,3.906
1789912301.348405,-62.012,-64.453,-104.004,-4.395
1789912301.352271,-65.430,-65.430,-99.609,2.930
1789912301.356138,-67.871,-67.871,-98.145,16.113
1789912301.360005,-69.336,-62.988,-98.145,22.949
1789912301.363871,-64.941,-62.500,-97.656,27.344
1789912301.367738,-53.711,-60.059,-93.262,20.508
1789912301.372180,-54.688,-54.688,-94.238,4.883
1789912301.376047,-48.828,-61.523,-100.586,2.441
1789912301.379914,-35.645,-62.500,-100.098,8.789
1789912301.383781,-32.715,-59.570,-101.074,-3.906
1789912301.387648,-35.156,-62.012,-103.516,-8.789
1789912301.391515,-51.270,-61.035,-96.191,-2.441
1789912301.395382,-48.828,-56.641,-96.680,4.395
1789912301.399249,-46.875,-63.477,-102.051,4.883
1789912301.403116,-55.176,-67.871,-98.145,3.906
1789912301.406982,-60.059,-62.988,-99.609,-7.324
1789912301.410849,-64.941,-63.477,-104.492,-19.043
1789912301.414716,-57.129,-69.336,-100.098,-5.859
1789912301.419128,-50.781,-71.289,-102.051,14.160
1789912301.422996,-40.039,-68.359,-107.910,12.207
1789912301.426863,-51.270,-67.871,-98.633,3.418
1789912301.430730,-59.570,-67.383,-94.238,8.789
1789912301.434597,-49.316,-63.965,-100.586,9.277
1789912301.438465,-41.992,-61.523,-99.609,-3.418
1789912301.442332,-40.527,-59.570,-93.262,-7.324
1789912301.446199,-51.270,-64.941,-95.703,-6.348
1789912301.450066,-52.246,-61.523,-96.191,1.953
1789912301.453934,-39.062,-59.082,-92.773,16.113
1789912301.457801,-38.086,-58.105,-95.215,8.789
1789912301.461668,-40.039,-54.199,-89.355,10.742
1789912301.466025,-44.434,-61.035,-92.285,13.184
1789912301.469892,-37.109,-57.617,-99.121,15.137
1789912301.473760,-14.160,-51.758,-96.680,16.602
1789912301.477627,-20.020,-53.223,-99.609,4.395
1789912301.481495,-22.949,-50.293,-95.703,9.766
1789912301.485362,-20.996,-50.293,-93.750,31.250
1789912301.489230,-32.715,-49.316,-97.168,25.879
1789912301.493097,-25.879,-40.039,-92.285,21.973
1789912301.496965,-19.043,-38.574,-84.473,34.180
1789912301.500832,-25.391,-41.992,-85.449,33.203
1789912301.504700,-16.602,-40.527,-81.543,37.598
1789912301.508567,-9.277,-36.621,-79.590,35.645
1789912301.512891,-19.043,-38.574,-84.961,20.996
1789912301.516758,-31.738,-39.062,-86.914,10.742
1789912301.520626,-23.926,-35.156,-85.938,23.438
1789912301.524494,-12.207,-31.250,-79.590,28.320
1789912301.528362,-25.391,-29.785,-75.684,20.996
1789912301.532230,-9.277,-29.785,-76.660,33.691
1789912301.536097,10.742,-22.461,-68.359,52.734
1789912301.539965,-12.695,-21.484,-67.871,52.246
1789912301.543833,-19.531,-23.926,-73.730,31.250
1789912301.547701,-11.719,-20.020,-66.895,30.762
1789912301.551569,9.766,-13.672,-69.824,37.598
1789912301.555436,33.691,-11.230,-71.777,51.758
