timestamp,TP9,AF7,AF8,TP10
1789911891.164630,-0.488,0.000,0.000,0.000
1789911891.168490,0.000,0.000,-0.488,0.000
1789911891.172350,-0.488,-0.977,-0.488,-1.465
1789911891.176209,-0.977,0.977,-0.488,2.441
1789911891.180069,4.883,-6.836,-2.930,-12.207
1789911891.183928,-1.465,-21.973,-23.926,-29.297
1789911891.187788,-4.395,-22.949,-43.945,-9.277
1789911891.191648,-0.977,-23.438,-39.062,-7.324
1789911891.195507,3.906,-22.949,-34.180,-25.391
1789911891.199367,13.672,-21.973,-36.133,-20.020
1789911891.203226,16.602,-21.484,-38.574,-15.625
1789911891.207086,20.508,-21.973,-33.203,-10.742
1789911891.209814,19.531,-23.438,-30.762,-13.672
1789911891.213579,11.230,-20.996,-25.879,-35.156
1789911891.217345,9.277,-15.625,-25.879,-13.672
1789911891.221110,24.902,-8.301,-27.832,17.090
1789911891.224875,27.344,-6.348,-23.438,7.324
1789911891.228641,16.113,-9.277,-24.414,-8.301
1789911891.232406,11.230,-12.207,-24.902,-8.301
1789911891.236171,20.996,-10.742,-15.137,23.926
1789911891.239936,15.137,-12.207,-19.043,16.113
1789911891.243702,12.695,-14.160,-27.344,-16.113
1789911891.247467,23.438,-9.766,-21.484,1.465
1789911891.251232,23.438,-5.859,-21.973,15.137
1789911891.252128,10.742,-12.695,-25.391,9.766
1789911891.255774,9.766,-18.066,-25.391,-9.277
1789911891.259419,11.719,-18.555,-29.297,-18.066
1789911891.263065,12.695,-23.926,-37.109,7.812
1789911891.266711,20.020,-21.484,-32.715,31.250
1789911891.270357,24.414,-18.555,-30.273,-0.488
1789911891.274002,21.484,-26.367,-37.109,-28.809
1789911891.277648,8.789,-29.297,-34.180,-5.859
1789911891.281294,-0.488,-22.949,-33.203,1.953
1789911891.284940,13.184,-21.484,-30.273,-14.648
1789911891.288585,15.625,-18.555,-27.344,-23.438
1789911891.292231,16.113,-15.137,-28.320,-10.254
1789911891.292007,27.344,-15.625,-22.949,7.812
1789911891.295545,27.832,-13.184,-25.879,0.488
1789911891.299084,25.391,-6.348,-17.090,-7.324
1789911891.302622,28.809,-6.836,-11.230,6.836
1789911891.306160,31.250,-14.160,-21.973,12.207
1789911891.309698,25.879,-18.066,-27.832,4.883
1789911891.313236,24.414,-17.090,-26.855,1.953
1789911891.316775,19.043,-16.602,-29.785,-3.418
1789911891.320313,10.742,-23.926,-32.715,-6.348
1789911891.323851,13.672,-22.949,-37.109,0.000
1789911891.327389,9.277,-20.508,-46.387,-19.531
1789911891.330928,14.160,-21.484,-38.574,-23.926
1789911891.332636,13.184,-26.367,-36.133,-3.418
1789911891.336136,0.000,-27.344,-46.875,-2.441
1789911891.339637,-5.859,-25.879,-41.992,-20.508
1789911891.343137,6.348,-21.973,-41.504,-49.805
1789911891.346637,29.785,-13.672,-45.898,-20.996
1789911891.350137,30.273,-16.602,-34.668,20.508
1789911891.353637,5.859,-27.344,-36.621,-4.395
1789911891.357137,-7.812,-34.668,-39.551,-33.203
1789911891.360637,-1.465,-34.180,-33.203,-22.949
1789911891.364137,1.465,-34.180,-34.180,-2.930
1789911891.367638,-5.859,-42.480,-28.809,-9.766
1789911891.371138,-17.090,-45.410,-29.297,-28.809
1789911891.371668,-16.113,-41.504,-25.879,-39.551
1789911891.375118,-26.367,-41.016,-23.438,-31.250
1789911891.378569,-30.273,-45.410,-23.438,-26.855
1789911891.382020,-15.137,-42.480,-15.137,-32.227
1789911891.385470,-5.859,-40.527,-16.602,-36.133
1789911891.388921,-11.230,-42.969,-15.625,-26.855
1789911891.392372,-5.859,-44.434,-20.020,-6.348
1789911891.395822,4.883,-40.039,-25.879,-4.883
1789911891.399273,4.883,-37.598,-31.250,-10.254
1789911891.402724,2.930,-40.039,-25.391,1.465
1789911891.406174,-5.371,-44.434,-26.367,7.324
1789911891.409625,-4.883,-38.086,-24.414,11.230
1789911891.412897,0.977,-27.832,-17.578,-9.277
1789911891.416345,0.000,-28.809,-20.020,-19.531
1789911891.419793,-0.977,-30.762,-15.625,4.883
1789911891.423241,0.977,-30.273,-19.043,0.000
1789911891.426689,5.859,-29.785,-23.438,-20.996
1789911891.430138,14.648,-30.273,-22.461,-27.344
1789911891.433586,13.184,-27.344,-21.484,-11.719
1789911891.437034,2.441,-25.391,-22.949,0.000
1789911891.440482,2.441,-25.879,-22.461,-5.859
1789911891.443930,6.348,-23.926,-26.367,-17.578
1789911891.447378,-8.301,-22.949,-29.785,-13.672
1789911891.450826,-11.230,-26.367,-26.855,5.371
1789911891.454681,-1.465,-29.297,-19.043,2.441
1789911891.458134,0.000,-28.320,-20.508,-8.789
1789911891.461587,-0.488,-22.461,-28.809,-10.254
1789911891.465040,7.324,-21.484,-23.438,-0.977
1789911891.468493,9.766,-23.438,-25.879,3.906
1789911891.471946,15.137,-22.461,-25.879,-10.742
1789911891.475399,21.973,-21.484,-24.414,-11.719
1789911891.478852,15.625,-21.484,-31.738,7.324
1789911891.482305,5.859,-23.926,-33.203,16.602
1789911891.485758,15.137,-24.902,-29.785,0.977
1789911891.489211,18.555,-30.762,-31.738,-11.230
1789911891.492664,15.625,-28.320,-38.086,1.953
1789911891.496864,11.230,-27.344,-36.621,14.648
1789911891.500325,4.395,-32.227,-38.574,-3.906
1789911891.503786,5.859,-33.691,-38.086,-32.715
1789911891.507247,-0.977,-33.691,-33.203,-30.273
1789911891.510708,-6.348,-33.203,-38.574,-17.090
1789911891.514168,-0.977,-35.645,-42.480,-26.367
1789911891.517629,6.348,-33.691,-42.480,-33.203
1789911891.521090,11.230,-33.203,-50.293,-7.812
1789911891.524551,13.184,-30.273,-45.410,7.812
1789911891.528011,6.348,-25.879,-32.715,-3.906
1789911891.531472,8.789,-18.555,-35.156,-12.695
1789911891.534933,17.090,-14.648,-29.297,-14.160
1789911891.539504,3.418,-18.555,-29.785,2.930
1789911891.542975,-0.488,-18.066,-37.598,1.465
1789911891.546446,8.301,-17.578,-38.086,-14.648
1789911891.549917,9.766,-22.949,-40.039,-9.766
1789911891.553388,6.836,-24.902,-32.715,-4.883
1789911891.556859,5.859,-15.625,-26.855,-1.465
1789911891.560330,14.160,-10.254,-29.297,-3.906
1789911891.563801,24.902,-12.695,-32.227,-6.836
1789911891.567272,19.043,-20.020,-35.645,-17.090
1789911891.570743,0.488,-24.414,-40.527,-21.973
1789911891.574214,0.977,-19.043,-41.992,-1.953
1789911891.577685,17.578,-19.043,-39.551,-9.766
1789911891.582432,10.254,-23.438,-40.039,-13.672
1789911891.585914,5.371,-24.902,-35.645,-3.418
1789911891.589396,16.602,-27.832,-38.574,0.000
1789911891.592877,14.648,-20.996,-40.039,-17.578
1789911891.596359,11.719,-19.043,-34.668,-37.109
1789911891.599841,11.230,-26.367,-41.992,-27.344
1789911891.603322,6.348,-23.926,-39.062,-27.344
1789911891.606804,6.836,-25.391,-37.598,-30.273
1789911891.610286,17.578,-26.367,-44.922,-29.297
1789911891.613767,11.719,-21.973,-39.551,-18.066
1789911891.617249,-1.953,-22.461,-40.039,7.812
1789911891.620731,-4.883,-29.297,-43.945,1.465
1789911891.625674,-1.953,-23.926,-41.016,-13.672
1789911891.629167,1.465,-19.043,-41.016,-12.207
1789911891.632660,7.812,-20.508,-32.715,0.977
1789911891.636153,18.555,-19.531,-31.738,0.488
1789911891.639646,16.113,-17.578,-36.133,-9.766
1789911891.643138,5.371,-19.043,-35.645,-18.555
1789911891.646631,-6.348,-22.461,-38.574,-2.441
1789911891.650124,-4.883,-25.391,-40.039,1.465
1789911891.653617,-7.812,-25.391,-43.945,-20.020
1789911891.657109,-0.488,-20.508,-42.480,-15.625
1789911891.660602,-4.395,-23.926,-38.574,-17.090
1789911891.664095,-0.488,-24.414,-40.527,-10.254
1789911891.669219,8.301,-19.531,-44.434,-9.766
1789911891.672723,0.977,-16.113,-41.992,-26.367
1789911891.676227,4.395,-15.137,-39.062,-25.391
1789911891.679731,-3.418,-17.090,-42.480,-14.648
1789911891.683235,-7.324,-20.508,-41.504,-1.953
1789911891.686739,1.465,-20.020,-42.969,-7.324
1789911891.690243,-5.371,-22.949,-37.109,-20.996
1789911891.693747,-3.906,-29.297,-36.621,-16.602
1789911891.697251,3.418,-26.855,-46.875,-8.301
1789911891.700755,5.859,-23.438,-41.992,-10.254
1789911891.704259,9.277,-15.137,-34.668,1.465
1789911891.707763,7.324,-14.160,-32.227,7.812
1789911891.712936,16.113,-13.672,-30.273,7.324
1789911891.716451,13.184,-13.184,-30.273,-2.930
1789911891.719966,15.137,-17.578,-34.668,-13.184
1789911891.723480,11.230,-16.113,-40.527,-5.371
1789911891.726995,3.906,-20.020,-42.969,-2.441
1789911891.730510,19.043,-23.926,-36.133,3.906
1789911891.734025,27.832,-19.531,-38.086,2.441
1789911891.737540,25.879,-21.973,-39.551,-16.602
1789911891.741054,14.648,-27.344,-39.551,-17.090
1789911891.744569,6.348,-26.367,-43.457,-19.043
1789911891.748084,2.930,-27.832,-45.898,-26.855
1789911891.751599,-3.906,-38.086,-45.410,-29.297
1789911891.758471,1.953,-41.016,-41.016,-18.066
1789911891.762006,11.230,-36.621,-37.109,-7.324
1789911891.765541,4.883,-30.762,-41.016,-22.949
1789911891.769076,10.254,-16.602,-40.527,-16.602
1789911891.772610,24.414,-3.418,-30.273,-6.348
1789911891.776145,32.227,-13.184,-32.227,-2.930
1789911891.779680,36.133,-29.297,-35.156,6.836
1789911891.783215,4.395,-23.438,-43.457,-27.344
1789911891.786749,-2.441,-12.207,-50.293,-35.645
1789911891.790284,13.672,-9.766,-52.246,-8.301
1789911891.793819,12.695,-5.859,-47.852,-6.348
1789911891.797354,4.395,-8.789,-47.852,-19.531
1789911891.804083,3.906,-20.020,-53.223,-21.484
1789911891.807636,16.602,-17.090,-49.805,-6.836
1789911891.811188,15.625,-15.137,-47.363,-10.254
1789911891.814741,13.672,-29.297,-44.922,-9.277
1789911891.818294,26.855,-30.273,-44.434,2.441
1789911891.821846,26.367,-21.484,-37.109,6.348
1789911891.825398,22.949,-18.066,-28.809,15.625
1789911891.828951,28.320,-15.137,-31.250,-3.906
1789911891.832504,11.719,-35.156,-39.551,-16.113
1789911891.836056,0.000,-37.109,-48.828,0.000
1789911891.839609,16.602,-28.809,-35.645,4.883
1789911891.843161,14.160,-52.246,-36.621,-18.066
1789911891.849673,-4.395,-67.383,-51.758,-32.227
1789911891.853241,-9.277,-80.078,-57.617,-33.691
1789911891.856809,-1.465,-108.887,-56.152,-31.738
1789911891.860377,1.465,-130.859,-53.711,-8.301
1789911891.863945,-3.418,-141.602,-61.035,-18.555
1789911891.867512,-12.695,-160.156,-64.941,-32.227
1789911891.871080,-24.902,-182.617,-63.965,-29.785
1789911891.874648,-30.273,-202.148,-66.895,-38.574
1789911891.878216,-21.484,-221.680,-75.684,-44.434
1789911891.881784,-24.414,-237.793,-84.473,-43.945
1789911891.885352,-36.621,-236.816,-92.285,-49.805
1789911891.888920,-42.969,-252.930,-98.145,-66.406
1789911891.895282,-38.574,-290.527,-106.934,-64.453
1789911891.898863,-35.156,-302.734,-110.352,-65.430
1789911891.902445,-42.969,-314.941,-115.723,-72.754
1789911891.906027,-42.480,-322.754,-122.070,-69.336
1789911891.909608,-60.059,-328.613,-123.047,-83.008
1789911891.913190,-68.848,-331.543,-130.371,-107.910
1789911891.916771,-60.547,-327.637,-139.160,-104.004
1789911891.920353,-56.641,-330.566,-140.625,-86.914
1789911891.923935,-48.828,-329.102,-142.090,-86.914
1789911891.927516,-49.316,-324.707,-144.043,-88.379
1789911891.931098,-48.828,-322.266,-136.230,-77.148
1789911891.934680,-58.594,-326.172,-128.418,-63.477
1789911891.940844,-81.055,-332.031,-128.906,-56.152
1789911891.944437,-72.754,-321.289,-125.000,-62.988
1789911891.948031,-54.199,-298.340,-118.164,-70.312
1789911891.951625,-78.125,-290.039,-118.652,-78.125
1789911891.955218,-84.961,-289.062,-116.211,-76.172
1789911891.958812,-63.965,-280.273,-114.258,-74.219
1789911891.962405,-67.383,-267.578,-117.188,-80.566
1789911891.965999,-70.312,-263.184,-113.770,-73.730
1789911891.969592,-69.824,-254.883,-116.211,-67.383
1789911891.973186,-64.941,-241.211,-116.699,-60.059
1789911891.976780,-67.383,-231.934,-117.676,-70.312
1789911891.980373,-72.754,-222.656,-124.023,-72.754
1789911891.986392,-67.871,-217.285,-120.605,-64.941
1789911891.989996,-68.848,-213.867,-117.676,-76.172
1789911891.993600,-74.707,-207.031,-117.676,-88.379
1789911891.997204,-62.988,-199.707,-113.770,-81.543
1789911892.000808,-47.852,-194.336,-104.492,-65.918
1789911892.004413,-49.805,-187.500,-96.191,-69.824
1789911892.008017,-49.805,-180.176,-96.680,-76.660
1789911892.011621,-42.969,-175.293,-90.332,-79.102
1789911892.015225,-28.809,-164.551,-77.148,-78.125
1789911892.018829,-34.180,-154.785,-71.777,-68.359
1789911892.022434,-51.270,-151.367,-77.148,-55.664
1789911892.026038,-39.551,-144.531,-79.590,-55.176
1789911892.032015,-38.086,-132.324,-76.172,-62.012
1789911892.035629,-41.504,-123.047,-75.195,-63.477
1789911892.039243,-35.645,-120.605,-74.219,-62.012
1789911892.042857,-28.809,-115.723,-66.406,-62.012
1789911892.046471,-28.320,-112.305,-67.383,-52.734
1789911892.050085,-33.203,-106.445,-67.383,-38.574
1789911892.053699,-26.367,-97.168,-64.941,-36.621
1789911892.057314,-26.367,-92.285,-70.801,-39.551
1789911892.060928,-26.855,-86.914,-73.730,-43.457
1789911892.064542,-21.484,-84.961,-72.266,-37.109
1789911892.068156,-16.602,-83.984,-69.824,-39.551
1789911892.071770,-9.766,-70.312,-65.430,-42.969
1789911892.077555,2.441,-56.641,-52.246,-32.227
1789911892.081178,14.648,-47.852,-52.734,-27.832
1789911892.084800,9.766,-36.621,-52.246,-35.645
1789911892.088423,-6.348,-33.691,-50.293,-44.434
1789911892.092046,-10.742,-36.133,-57.129,-45.898
1789911892.095669,-0.977,-23.926,-55.664,-31.738
1789911892.099291,1.953,-15.625,-46.875,-25.879
1789911892.102914,-1.465,-12.207,-44.434,-31.738
1789911892.106537,4.395,-1.465,-40.039,-13.672
1789911892.110159,15.625,1.953,-35.645,-15.137
1789911892.113782,20.996,5.859,-42.480,-38.086
1789911892.117405,13.184,7.812,-37.109,-27.832
1789911892.124392,16.113,11.719,-30.273,-20.020
1789911892.128028,19.531,20.020,-32.227,-25.391
1789911892.131663,17.090,21.973,-24.902,-18.066
1789911892.135299,16.602,24.902,-18.066,-15.625
1789911892.138934,18.066,32.715,-19.531,-11.719
1789911892.142570,16.602,39.062,-20.996,-8.301
1789911892.146205,7.324,41.016,-15.137,-10.742
1789911892.149840,15.625,41.992,-13.672,-25.879
1789911892.153476,24.414,45.410,-15.137,-26.855
1789911892.157111,23.438,48.340,-12.695,-6.836
1789911892.160747,24.414,51.270,-15.137,-15.137
1789911892.164382,18.555,51.758,-17.578,-15.137
1789911892.171223,13.184,42.969,-23.438,4.395
1789911892.174870,16.602,42.969,-20.508,7.812
1789911892.178517,24.414,45.410,-14.160,14.160
1789911892.182164,31.250,41.504,-16.113,20.996
1789911892.185811,23.438,43.945,-17.090,17.578
1789911892.189458,20.996,48.828,-24.414,7.324
1789911892.193105,27.344,50.781,-10.742,7.324
1789911892.196753,27.832,44.434,5.371,15.625
1789911892.200400,27.344,43.457,1.953,22.949
1789911892.204047,37.109,48.340,4.883,31.738
1789911892.207694,41.016,47.363,3.906,19.043
1789911892.211341,34.668,43.457,-5.371,19.531
1789911892.217866,28.809,39.551,-11.230,20.996
1789911892.221523,31.250,37.109,-0.488,15.137
1789911892.225180,45.898,45.898,8.789,25.879
1789911892.228837,39.551,47.852,0.000,23.438
1789911892.232494,30.762,42.480,-4.883,22.461
1789911892.236151,33.691,48.828,0.488,16.602
1789911892.239808,31.738,47.852,-0.977,10.254
1789911892.243465,26.855,38.574,-2.441,19.043
1789911892.247122,38.574,38.574,-7.812,17.578
1789911892.250779,38.086,41.016,-5.371,12.695
1789911892.254436,38.086,38.574,-4.395,18.066
1789911892.258094,36.133,37.598,-9.277,19.043
1789911892.265527,21.484,41.016,5.371,1.465
1789911892.269197,29.297,47.363,10.254,21.484
1789911892.272867,42.969,46.875,2.930,45.410
1789911892.276536,33.691,51.758,1.465,35.156
1789911892.280206,21.484,65.918,1.465,4.883
1789911892.283876,21.484,67.871,-10.254,-7.324
1789911892.287545,16.602,59.082,-16.602,0.000
1789911892.291215,23.438,54.688,-8.301,6.348
1789911892.294885,27.832,60.547,-7.324,14.160
1789911892.298554,23.438,53.223,-18.066,7.812
1789911892.302224,24.902,44.922,-18.066,1.953
1789911892.305894,22.461,45.898,-18.066,3.906
1789911892.311835,8.789,51.758,-14.160,2.930
1789911892.315511,9.766,54.199,-0.977,-10.742
1789911892.319189,24.414,46.875,0.488,-12.207
1789911892.322865,14.160,42.480,-8.301,-7.812
1789911892.326542,2.930,39.062,-20.508,-10.254
1789911892.330219,9.766,38.574,-23.438,-24.902
1789911892.333896,11.230,38.086,-18.555,-24.414
1789911892.337573,13.672,43.457,-12.207,-11.719
1789911892.341250,8.301,46.387,-20.020,-14.648
1789911892.344927,-4.883,32.227,-24.902,-29.785
1789911892.348604,-4.395,21.973,-25.391,-28.320
1789911892.352281,-4.395,22.461,-28.320,-16.602
1789911892.358661,0.488,20.508,-26.367,-27.832
1789911892.362346,11.719,26.367,-23.438,-35.645
1789911892.366031,15.625,29.297,-26.367,-31.738
1789911892.369717,6.836,28.809,-32.227,-23.926
1789911892.373402,12.207,36.621,-23.926,-18.066
1789911892.377087,22.949,35.645,-23.438,-28.320
1789911892.380773,20.508,29.297,-20.996,-19.531
1789911892.384458,11.719,28.320,-12.207,-12.695
1789911892.388143,13.672,26.367,-18.066,-10.742
1789911892.391829,23.926,28.320,-21.973,-5.371
1789911892.395514,16.113,24.902,-16.602,-11.719
1789911892.399199,0.488,13.184,-20.508,-17.090
1789911892.404919,-4.883,4.395,-29.297,-15.137
1789911892.408610,-4.883,1.953,-27.832,-10.742
1789911892.412302,-0.977,1.465,-33.203,-12.695
1789911892.415993,1.953,10.254,-40.039,-7.812
1789911892.419684,9.277,14.648,-35.645,2.441
1789911892.423376,14.160,12.695,-30.273,10.742
1789911892.427067,17.090,9.277,-31.738,3.906
1789911892.430758,20.508,10.254,-30.273,-6.348
1789911892.434450,15.137,16.113,-25.879,-0.977
1789911892.438141,10.254,16.113,-25.879,7.812
1789911892.441832,17.090,16.602,-22.949,0.488
1789911892.445524,11.719,14.648,-27.832,-4.395
1789911892.451035,11.230,14.648,-33.203,6.348
1789911892.454731,12.207,12.695,-33.691,-0.977
1789911892.458428,7.812,7.812,-37.598,-2.441
1789911892.462125,-0.488,3.906,-36.621,-5.371
1789911892.465821,-6.348,-3.906,-37.109,-14.160
1789911892.469518,4.883,-3.418,-32.227,-10.254
1789911892.473214,21.973,2.930,-28.320,-15.625
1789911892.476911,34.180,1.465,-28.809,-18.555
1789911892.480608,32.227,8.789,-24.902,-11.230
1789911892.484304,41.992,20.020,-17.090,2.441
1789911892.488001,40.039,20.020,-10.254,-2.441
1789911892.491697,19.531,23.926,-15.137,-20.996
1789911892.498183,12.207,31.250,-26.367,-18.555
1789911892.501887,9.766,28.320,-29.785,-12.695
1789911892.505591,9.277,26.855,-37.109,-5.371
1789911892.509296,11.719,30.273,-36.621,-7.812
1789911892.513000,20.996,27.832,-26.855,-20.508
1789911892.516704,16.602,20.996,-31.738,-28.320
1789911892.520409,10.742,21.973,-33.691,-25.391
1789911892.524113,16.602,20.508,-23.438,-19.531
1789911892.527817,16.602,20.508,-20.996,-19.043
1789911892.531522,12.695,27.344,-23.438,-14.648
1789911892.535226,11.719,31.250,-27.344,-10.742
1789911892.538930,10.254,35.156,-27.832,-8.789
1789911892.545116,12.695,35.645,-26.855,-10.254
1789911892.548827,-1.953,28.809,-28.320,1.465
1789911892.552538,-17.090,23.438,-26.855,1.953
1789911892.556249,-16.113,22.949,-22.949,-6.348
1789911892.559960,-11.230,30.273,-16.602,0.488
1789911892.563671,-10.742,36.133,-10.742,9.277
1789911892.567382,-20.996,32.227,-10.254,0.488
1789911892.571093,-21.973,26.367,-7.812,-20.020
1789911892.574804,-15.137,27.832,-10.742,-14.648
1789911892.578515,-17.090,33.203,-18.555,-11.719
1789911892.582226,-60.547,35.156,-18.066,-1.953
1789911892.585937,-131.348,33.691,-12.207,10.742
1789911892.591951,-156.738,32.227,-8.301,5.859
1789911892.595668,-162.598,32.715,-14.160,-0.488
1789911892.599385,-174.316,29.785,-17.578,2.930
1789911892.603102,-182.617,24.414,-18.066,4.395
1789911892.606819,-177.246,23.926,-18.066,-15.137
1789911892.610536,-171.875,21.973,-15.137,-16.113
1789911892.614253,-173.340,22.461,-13.672,-6.348
1789911892.617970,-166.504,30.273,-21.484,-7.324
1789911892.621686,-158.691,26.367,-20.508,-20.020
1789911892.625404,-147.461,22.461,-15.137,-13.184
1789911892.629121,-136.230,24.414,-19.043,-17.578
1789911892.632838,-130.371,26.855,-17.578,-14.648
1789911892.638698,-125.000,27.832,-15.625,11.230
1789911892.642420,-125.977,28.320,-12.207,-5.859
1789911892.646143,-123.047,31.250,-15.625,-24.902
1789911892.649865,-118.164,55.176,-18.066,-20.020
1789911892.653588,-120.605,67.383,-19.043,-27.344
1789911892.657310,-118.164,59.570,-17.578,-17.090
1789911892.661032,-112.793,58.105,-12.207,-12.207
1789911892.664755,-108.887,55.176,-16.113,-10.742
1789911892.668477,-101.074,55.176,-16.602,-0.977
1789911892.672199,-95.703,52.734,-16.113,-7.324
1789911892.675922,-83.984,52.734,-17.090,-7.324
1789911892.679644,-75.684,51.758,-20.996,-12.207
1789911892.685333,-69.824,52.246,-24.414,-21.484
1789911892.689060,-67.383,48.828,-27.344,-19.531
1789911892.692787,-69.336,39.062,-29.297,-29.297
1789911892.696515,-69.336,32.715,-30.273,-41.992
1789911892.700242,-70.312,28.320,-27.832,-32.715
1789911892.703969,-64.453,31.250,-21.973,-28.320
1789911892.707696,-62.500,29.297,-24.902,-23.926
1789911892.711423,-58.594,22.461,-25.391,-18.555
1789911892.715151,-51.270,24.902,-20.020,-14.160
1789911892.718878,-66.406,22.949,-20.508,-17.090
1789911892.722605,-65.430,20.020,-22.949,-5.859
1789911892.726332,-50.781,24.414,-20.996,-7.812
1789911892.731845,-47.852,21.973,-25.391,-20.508
1789911892.735576,-56.641,13.184,-24.414,-9.766
1789911892.739308,-58.594,9.766,-19.531,-11.719
1789911892.743039,-50.781,10.742,-22.949,-15.137
1789911892.746771,-46.875,11.719,-23.926,-17.578
1789911892.750502,-43.945,9.766,-23.926,-12.695
1789911892.754234,-47.852,7.324,-15.625,-2.441
1789911892.757965,-47.363,4.883,-20.020,-1.465
1789911892.761697,-47.363,0.488,-25.879,-14.648
1789911892.765428,-37.598,5.859,-21.973,0.488
1789911892.769160,-20.996,6.836,-24.902,9.277
1789911892.772891,-9.766,-3.418,-28.320,0.977
1789911892.778327,-10.254,-10.742,-25.879,-8.789
1789911892.782062,-18.066,-9.277,-26.367,-11.230
1789911892.785798,-25.879,-8.789,-31.738,2.930
1789911892.789533,-25.879,-10.742,-25.391,-2.441
1789911892.793268,-21.973,-10.742,-24.414,-14.648
1789911892.797004,-25.879,-12.695,-38.086,-21.484
1789911892.800739,-32.227,-15.625,-35.156,-18.066
1789911892.804475,-30.273,-13.672,-30.273,-33.203
1789911892.808210,-33.691,-18.066,-34.180,-41.016
1789911892.811945,-38.086,-22.461,-30.762,-26.855
1789911892.815681,-37.109,-16.113,-23.438,-21.973
1789911892.819416,-29.785,-12.207,-16.602,-3.906
1789911892.825623,-23.926,-15.137,-22.949,1.953
1789911892.829364,-16.602,-18.066,-24.414,-6.348
1789911892.833105,-20.996,-21.484,-16.602,-10.254
1789911892.836846,-27.832,-21.484,-18.555,-22.461
1789911892.840587,-26.367,-17.578,-22.949,-40.527
1789911892.844328,-26.367,-20.020,-31.250,-24.414
1789911892.848069,-23.926,-25.879,-36.133,-21.484
1789911892.851810,-22.949,-23.926,-32.227,-26.367
1789911892.855551,-31.250,-21.973,-28.320,-23.438
1789911892.859292,-32.227,-23.438,-23.438,-36.621
1789911892.863033,-30.273,-23.438,-23.926,-28.320
1789911892.866774,-30.273,-23.438,-21.973,-28.809
1789911892.872825,-24.902,-25.879,-29.297,-43.945
1789911892.876571,-17.090,-32.227,-32.715,-33.691
1789911892.880317,-18.555,-35.156,-32.227,-31.738
1789911892.884063,-35.156,-40.527,-33.203,-30.273
1789911892.887809,-36.621,-41.504,-30.273,-26.367
1789911892.891555,-27.832,-38.086,-29.297,-35.156
1789911892.895301,-36.133,-40.039,-33.691,-48.340
1789911892.899047,-39.551,-39.551,-36.621,-50.781
1789911892.902793,-30.762,-40.039,-31.250,-42.480
1789911892.906539,-35.645,-38.086,-23.438,-34.180
1789911892.910285,-40.527,-31.250,-21.973,-38.574
1789911892.914032,-36.621,-30.273,-18.555,-47.363
1789911892.919832,-35.645,-30.762,-18.555,-41.992
1789911892.923583,-30.273,-31.738,-23.926,-23.926
1789911892.927333,-20.996,-36.133,-21.973,-28.809
1789911892.931083,-24.902,-41.504,-23.926,-36.133
1789911892.934834,-39.551,-46.387,-25.879,-28.809
1789911892.938584,-33.203,-42.969,-22.461,-21.484
1789911892.942335,-13.672,-41.504,-18.555,-26.367
1789911892.946085,-22.461,-47.363,-22.949,-40.527
1789911892.949836,-36.621,-49.805,-20.508,-28.809
1789911892.953586,-40.527,-58.105,-22.949,-20.508
1789911892.957336,-53.711,-63.965,-27.832,-30.273
1789911892.961087,-43.457,-57.129,-24.414,-32.227
1789911892.966821,0.000,-50.781,-28.320,-32.227
1789911892.970576,0.000,-44.434,-25.879,-32.715
1789911892.974331,0.000,-44.434,-20.508,-41.504
1789911892.978085,0.000,-47.852,-21.973,-48.340
1789911892.981840,0.000,-39.551,-21.973,-29.297
1789911892.985594,0.000,-38.574,-21.484,-26.855
1789911892.989349,0.000,-41.504,-19.531,-33.691
1789911892.993103,0.000,-43.457,-17.578,-31.250
1789911892.996858,0.000,-44.434,-15.625,-29.785
1789911893.000612,0.000,-47.852,-13.672,-31.738
1789911893.004367,0.000,-46.387,-15.625,-30.762
1789911893.008122,0.000,-43.457,-17.578,-25.879
1789911893.013648,-21.973,-42.480,-16.602,-26.367
1789911893.017406,-17.578,-37.598,-20.508,-24.902
1789911893.021164,-9.277,-34.180,-20.508,-24.902
1789911893.024922,-5.371,-34.180,-20.508,-24.902
1789911893.028680,-9.277,-33.203,-19.531,-20.508
1789911893.032439,-11.230,-34.668,-19.531,-8.301
1789911893.036197,-10.742,-39.062,-23.926,-19.531
1789911893.039955,-10.254,-35.156,-20.020,-15.625
1789911893.043713,-12.695,-37.598,-15.137,-14.648
1789911893.047471,-15.137,-37.109,-13.184,-13.672
1789911893.051229,-22.461,-39.551,-16.113,-21.484
1789911893.054987,-14.648,-45.898,-19.043,-29.297
1789911893.060414,-6.348,-37.598,-22.461,-14.160
1789911893.064175,-25.879,-37.598,-25.391,-23.926
1789911893.067937,-32.227,-39.551,-27.344,-35.645
1789911893.071698,-26.367,-34.180,-25.879,-36.621
1789911893.075460,-18.555,-28.809,-25.391,-30.273
1789911893.079221,-19.043,-26.367,-24.414,-29.297
1789911893.082983,-22.461,-29.297,-14.648,-26.855
1789911893.086744,-20.996,-34.668,-11.719,-29.297
1789911893.090506,-21.484,-38.574,-23.926,-33.691
1789911893.094267,-32.715,-43.945,-32.715,-29.785
1789911893.098028,-38.574,-45.410,-32.715,-29.785
1789911893.101790,-41.992,-43.457,-36.133,-33.203
1789911893.107933,-36.621,-44.434,-37.598,-29.297
1789911893.111699,-23.438,-42.480,-33.203,-29.297
1789911893.115465,-25.391,-39.551,-29.297,-47.852
1789911893.119232,-21.973,-35.156,-23.438,-45.410
1789911893.122998,-17.578,-31.250,-28.320,-33.691
1789911893.126764,-23.926,-34.180,-33.203,-37.598
1789911893.130530,-18.066,-32.227,-29.297,-29.785
1789911893.134296,-12.207,-32.715,-32.715,-45.410
1789911893.138062,-30.273,-37.598,-41.016,-59.570
1789911893.141828,-27.832,-36.133,-41.992,-49.316
1789911893.145594,-15.625,-31.738,-39.062,-43.457
1789911893.149360,-8.301,-28.809,-34.180,-36.133
1789911893.155261,-14.160,-23.438,-26.855,-35.645
1789911893.159031,-26.367,-23.926,-30.273,-28.809
1789911893.162801,-25.391,-26.367,-32.715,-27.832
1789911893.166571,-22.949,-24.902,-30.762,-36.621
1789911893.170341,-13.672,-21.973,-33.203,-38.574
1789911893.174111,-5.371,-24.902,-34.668,-37.109
1789911893.177881,-13.184,-30.762,-36.133,-28.320
1789911893.181652,-19.043,-32.227,-35.645,-29.297
1789911893.185422,-11.719,-34.180,-40.039,-30.762
1789911893.189192,-5.371,-32.715,-48.340,-20.508
1789911893.192962,-8.301,-31.738,-43.457,-15.137
1789911893.196732,-10.742,-28.809,-41.016,-35.156
1789911893.201726,-8.789,-21.484,-43.457,-46.875
1789911893.205499,-11.719,-18.555,-46.875,-44.922
1789911893.209271,-4.883,-17.090,-44.922,-50.781
1789911893.213043,-2.930,-16.113,-36.133,-34.668
1789911893.216816,-6.348,-20.508,-41.016,-34.180
1789911893.220588,-1.465,-18.066,-47.852,-37.109
1789911893.224360,-8.301,-17.578,-38.574,-29.785
1789911893.228133,-20.020,-19.531,-37.109,-30.762
1789911893.231905,-22.461,-17.578,-35.156,-31.738
1789911893.235678,-20.996,-19.531,-32.715,-27.344
1789911893.239450,-18.066,-21.484,-36.133,-24.414
1789911893.243222,-11.230,-29.785,-37.109,-29.297
1789911893.249094,-15.625,-33.691,-30.762,-35.645
1789911893.252871,-17.578,-26.367,-34.668,-32.227
1789911893.256647,-25.391,-28.320,-38.574,-23.926
1789911893.260423,-33.691,-31.738,-29.785,-27.344
1789911893.264199,-31.250,-30.762,-33.203,-39.551
1789911893.267975,-39.062,-34.180,-29.785,-41.504
1789911893.271752,-43.945,-40.527,-32.227,-46.875
1789911893.275528,-35.645,-37.598,-40.527,-40.527
1789911893.279304,-28.809,-31.738,-33.691,-40.039
1789911893.283080,-29.785,-34.180,-32.715,-45.410
1789911893.286856,-32.227,-39.062,-35.645,-40.527
1789911893.290632,-29.785,-36.133,-30.273,-29.297
1789911893.296132,-30.273,-33.691,-26.367,-18.066
1789911893.299911,-29.297,-38.574,-29.297,-25.391
1789911893.303690,-17.090,-39.551,-28.320,-35.645
1789911893.307470,-26.367,-43.457,-35.645,-44.434
1789911893.311249,-31.250,-42.969,-41.504,-49.316
1789911893.315028,-25.879,-43.457,-36.133,-45.410
1789911893.318808,-45.898,-46.387,-32.227,-45.898
1789911893.322587,-52.734,-43.457,-33.203,-49.805
1789911893.326366,-48.340,-43.457,-33.691,-38.574
1789911893.330145,-45.898,-41.504,-30.762,-20.020
1789911893.333925,-30.762,-41.504,-33.203,-27.832
1789911893.337704,-18.555,-40.039,-34.180,-38.086
1789911893.343160,0.000,-34.668,-25.391,-37.109
1789911893.346942,0.000,-36.133,-23.438,-32.715
1789911893.350724,0.000,-32.227,-22.461,-35.645
1789911893.354507,0.000,-21.484,-20.020,-38.574
1789911893.358289,0.000,-19.043,-18.555,-27.832
1789911893.362071,0.000,-23.926,-25.391,-30.273
1789911893.365853,0.000,-29.297,-27.344,-39.551
1789911893.369635,0.000,-24.902,-21.484,-36.621
1789911893.373418,0.000,-22.949,-22.949,-35.156
1789911893.377200,0.000,-23.926,-31.250,-29.297
1789911893.380982,0.000,-24.414,-30.273,-32.227
1789911893.384764,0.000,-30.762,-26.367,-37.109
1789911893.390094,-37.109,-37.109,-28.320,-17.090
1789911893.393879,-24.902,-30.762,-25.879,-11.230
1789911893.397664,-24.902,-30.762,-24.414,-38.574
1789911893.401448,-38.086,-33.203,-21.973,-42.480
1789911893.405233,-36.133,-28.320,-17.578,-32.715
1789911893.409018,-35.156,-29.297,-27.344,-41.992
1789911893.412803,-33.203,-36.621,-31.738,-45.410
1789911893.416588,-35.156,-35.156,-26.855,-28.320
1789911893.420372,-28.809,-31.250,-25.391,-16.602
1789911893.424157,-28.809,-36.133,-30.273,-33.691
1789911893.427942,-36.133,-33.691,-30.273,-32.227
1789911893.431727,-35.156,-32.715,-26.855,-35.156
1789911893.437145,0.000,-38.574,-30.762,-42.969
1789911893.440933,0.000,-38.574,-35.156,-51.270
1789911893.444720,0.000,-32.715,-30.273,-39.062
1789911893.448508,0.000,-31.250,-25.391,-35.645
1789911893.452295,0.000,-36.621,-24.414,-46.875
1789911893.456083,0.000,-26.367,-23.438,-23.438
1789911893.459870,0.000,-19.043,-19.043,-12.207
1789911893.463658,0.000,-26.367,-14.160,-15.137
1789911893.467445,0.000,-24.414,-17.578,-6.836
1789911893.471233,0.000,-18.066,-20.020,-5.859
1789911893.475020,0.000,-21.484,-17.090,-15.137
1789911893.478808,0.000,-21.973,-11.719,-9.277
1789911893.484006,-6.348,-20.508,-7.812,-14.648
1789911893.487796,-5.859,-21.484,-9.277,-18.066
1789911893.491586,3.906,-22.461,-11.230,-11.719
1789911893.495376,6.348,-21.973,-15.137,-20.508
1789911893.499166,13.184,-19.531,-11.719,-24.414
1789911893.502955,9.766,-20.020,-13.184,-18.066
1789911893.506745,-3.906,-24.902,-15.625,-16.113
1789911893.510535,-10.254,-25.391,-16.602,-9.766
1789911893.514325,-13.184,-24.414,-16.602,-10.254
1789911893.518115,-6.348,-29.297,-10.742,-17.090
1789911893.521905,-10.742,-27.832,-13.672,-10.254
1789911893.525695,-6.348,-19.531,-10.742,-6.348
1789911893.530572,-12.695,-24.414,-8.789,-23.926
1789911893.534364,-17.090,-29.785,-16.602,-36.621
1789911893.538155,-13.184,-25.879,-17.090,-38.574
1789911893.541947,-15.625,-26.855,-18.066,-22.461
1789911893.545738,-9.277,-27.832,-19.531,-17.090
1789911893.549530,-12.207,-21.484,-22.461,-24.902
1789911893.553321,-12.695,-16.602,-15.625,-20.508
1789911893.557113,-2.441,-20.996,-10.742,-16.602
1789911893.560905,-2.441,-21.484,-15.625,-20.020
1789911893.564696,-2.930,-18.555,-10.742,-19.531
1789911893.568488,-6.836,-20.996,-5.859,-17.090
1789911893.572279,0.000,-22.461,-12.207,-15.625
1789911893.577118,-0.488,-25.391,-10.254,-8.789
1789911893.580911,3.906,-23.926,-9.766,-16.602
1789911893.584704,16.602,-20.020,-15.137,-26.367
1789911893.588497,17.090,-25.391,-19.043,-32.715
1789911893.592291,16.113,-23.926,-21.484,-31.738
1789911893.596084,22.461,-21.973,-20.996,-17.578
1789911893.599877,24.902,-25.879,-15.625,-14.648
1789911893.603670,14.160,-27.344,-13.184,-14.648
1789911893.607464,7.324,-22.949,-17.578,-7.812
1789911893.611257,11.230,-19.043,-17.090,-5.859
1789911893.615050,13.184,-19.043,-14.648,-11.719
1789911893.618843,21.484,-22.461,-18.555,-7.324
1789911893.624278,0.000,-26.367,-21.484,3.418
1789911893.628074,0.000,-26.367,-19.531,-6.348
1789911893.631870,0.000,-25.391,-23.438,-27.832
1789911893.635665,0.000,-24.902,-21.484,-24.902
1789911893.639461,0.000,-22.949,-18.555,-18.555
1789911893.643257,0.000,-27.832,-20.508,-21.484
1789911893.647053,0.000,-36.133,-24.902,-19.043
1789911893.650848,0.000,-38.086,-28.809,-30.273
1789911893.654644,0.000,-32.715,-20.996,-30.273
1789911893.658440,0.000,-31.738,-18.066,-16.113
1789911893.662235,0.000,-35.156,-25.879,-22.461
1789911893.666031,0.000,-32.715,-31.738,-26.855
1789911893.671300,3.906,-33.691,-31.738,-18.066
1789911893.675098,-1.953,-33.203,-27.832,-13.184
1789911893.678896,9.277,-36.133,-34.180,-15.137
1789911893.682694,16.113,-39.062,-38.574,-19.043
1789911893.686492,13.184,-31.250,-33.203,-25.391
1789911893.690290,8.301,-30.762,-27.832,-13.184
1789911893.694088,14.160,-28.809,-23.926,11.230
1789911893.697886,14.160,-27.832,-24.414,-6.348
1789911893.701684,10.254,-29.785,-24.414,-8.789
1789911893.705482,6.348,-35.645,-20.996,-2.930
1789911893.709280,9.277,-38.086,-23.438,-34.180
1789911893.713078,16.113,-34.668,-23.438,-37.109
1789911893.718334,12.695,-28.320,-17.578,-20.508
1789911893.722134,7.324,-25.879,-15.137,-20.508
1789911893.725934,-1.953,-29.785,-15.137,-20.996
1789911893.729734,6.348,-28.809,-11.719,-16.113
1789911893.733534,16.602,-28.320,-15.137,-21.484
1789911893.737334,11.719,-28.320,-16.602,-24.414
1789911893.741135,9.766,-30.762,-22.461,-20.508
1789911893.744935,12.207,-32.227,-24.902,-24.902
1789911893.748735,3.906,-34.668,-15.625,-28.809
1789911893.752535,1.465,-33.203,-14.160,-19.043
1789911893.756335,2.441,-25.391,-18.555,-26.367
1789911893.760135,-3.418,-27.832,-23.926,-36.621
1789911893.765198,-1.465,-38.086,-31.738,-27.832
1789911893.769000,-0.977,-39.062,-32.227,-31.738
1789911893.772802,-7.812,-34.668,-31.738,-44.922
1789911893.776604,2.930,-32.715,-29.785,-33.691
1789911893.780406,5.859,-30.762,-30.273,-27.832
1789911893.784208,1.953,-28.809,-39.551,-40.527
1789911893.788010,3.906,-28.320,-35.645,-29.785
1789911893.791812,8.301,-26.855,-21.973,-10.254
1789911893.795614,12.207,-29.297,-20.020,-18.066
1789911893.799416,5.859,-26.855,-25.879,-25.879
1789911893.803218,4.395,-19.043,-24.414,-27.832
1789911893.807020,1.465,-25.391,-28.320,-28.809
1789911893.811984,-1.465,-33.203,-33.691,-19.043
1789911893.815788,3.906,-30.762,-35.156,-24.414
1789911893.819591,5.859,-26.367,-32.227,-36.133
1789911893.823395,3.906,-23.926,-26.855,-25.391
1789911893.827199,3.906,-27.832,-29.785,-17.578
1789911893.831002,3.418,-27.832,-27.832,-37.109
1789911893.834806,0.488,-26.367,-25.879,-36.621
1789911893.838610,-0.488,-21.973,-25.391,-8.301
1789911893.842413,-1.953,-17.090,-20.508,-11.230
1789911893.846217,-7.812,-16.113,-18.555,-26.367
1789911893.850021,-3.418,-13.672,-21.973,-24.414
1789911893.853824,7.812,-16.113,-25.879,-20.996
1789911893.858705,-1.465,-20.996,-20.996,-19.043
1789911893.862510,-9.277,-19.531,-12.207,-20.020
1789911893.866315,-1.465,-22.461,-23.438,-15.137
1789911893.870121,-6.836,-25.391,-24.902,-12.695
1789911893.873926,-10.742,-23.926,-17.090,-14.648
1789911893.877731,-9.766,-27.344,-23.438,-9.277
1789911893.881536,0.488,-27.344,-22.461,-0.488
1789911893.885341,-0.488,-26.367,-17.090,-9.277
1789911893.889146,-9.277,-27.344,-18.555,-21.973
1789911893.892951,-11.230,-30.273,-16.602,-20.508
1789911893.896757,-2.441,-28.809,-16.602,-23.438
1789911893.900562,3.418,-22.461,-19.531,-24.414
1789911893.905969,3.418,-26.855,-20.508,-23.926
1789911893.909776,4.883,-26.367,-17.578,-20.508
1789911893.913584,2.441,-18.555,-17.578,-13.672
1789911893.917391,5.859,-17.578,-19.043,-26.367
1789911893.921199,6.836,-15.137,-14.648,-30.273
1789911893.925006,7.812,-5.371,-13.672,-14.648
1789911893.928813,10.742,-3.906,-16.113,-0.977
1789911893.932621,5.371,-9.277,-11.719,-13.672
1789911893.936428,-4.883,-10.742,-13.184,-32.227
1789911893.940236,3.906,-12.207,-15.137,-17.090
1789911893.944043,4.883,-14.648,-20.020,-15.625
1789911893.947850,-5.859,-22.949,-23.926,-21.973
1789911893.952551,-5.859,-26.367,-18.066,-31.250
1789911893.956360,-3.906,-16.602,-19.043,-27.344
1789911893.960168,3.906,-13.672,-23.926,-12.207
1789911893.963977,0.977,-20.508,-26.855,-25.391
1789911893.967786,2.930,-22.461,-25.879,-35.156
1789911893.971594,5.371,-17.090,-21.484,-28.809
1789911893.975403,5.859,-12.695,-25.879,-19.043
1789911893.979211,3.418,-8.301,-27.344,-13.672
1789911893.983020,-10.254,-9.766,-24.414,-20.996
1789911893.986829,-2.930,-14.648,-22.949,-8.301
1789911893.990637,4.883,-9.766,-24.902,1.465
1789911893.994446,4.883,-6.836,-25.879,-21.973
1789911893.999682,0.000,-6.348,-22.949,-27.832
1789911894.003493,0.000,-10.254,-21.973,-25.391
1789911894.007303,0.000,-18.555,-21.973,-30.762
1789911894.011114,0.000,-20.508,-19.531,-31.738
1789911894.014924,0.000,-15.625,-21.484,-26.367
1789911894.018735,0.000,-18.066,-19.531,-26.855
1789911894.022546,0.000,-20.508,-16.113,-26.855
1789911894.026356,0.000,-16.113,-16.113,-16.113
1789911894.030167,0.000,-17.578,-19.531,-19.531
1789911894.033977,0.000,-24.414,-16.113,-25.879
1789911894.037788,0.000,-24.902,-10.742,-22.461
1789911894.041598,0.000,-23.438,-20.508,-18.555
1789911894.046710,2.930,-32.227,-23.438,-14.648
1789911894.050522,-4.395,-34.668,-24.414,-20.996
1789911894.054334,-12.207,-32.715,-27.344,-22.461
1789911894.058146,-15.625,-37.598,-21.973,-25.879
1789911894.061959,-13.672,-40.527,-22.461,-32.227
1789911894.065771,-12.207,-36.621,-29.785,-29.297
1789911894.069583,-7.812,-34.668,-28.809,-22.949
1789911894.073395,-2.930,-35.645,-30.762,-29.297
1789911894.077208,-7.812,-30.273,-25.879,-33.203
1789911894.081020,-22.949,-27.832,-19.531,-24.414
1789911894.084832,-16.602,-23.926,-17.090,-22.949
1789911894.088645,-9.766,-20.508,-8.301,-25.391
1789911894.093692,-15.625,-21.973,-10.742,-13.672
1789911894.097506,-13.672,-25.879,-20.020,-14.160
1789911894.101320,-14.160,-25.879,-20.508,-33.691
1789911894.105133,-20.996,-27.832,-18.555,-35.645
1789911894.108947,-18.555,-23.926,-20.508,-23.926
1789911894.112761,-11.230,-22.461,-23.926,-29.785
1789911894.116575,-8.789,-31.250,-21.484,-36.621
1789911894.120389,-1.465,-30.273,-20.020,-38.086
1789911894.124203,7.812,-20.508,-14.648,-38.086
1789911894.128017,0.977,-17.090,-9.277,-14.160
1789911894.131830,-6.836,-24.414,-13.672,-18.066
1789911894.135644,-2.441,-21.484,-11.719,-32.227
1789911894.140580,-3.418,-18.066,-9.766,-27.832
1789911894.144396,-0.488,-17.578,-14.648,-25.391
1789911894.148211,-5.371,-15.137,-8.789,-34.668
1789911894.152026,-2.441,-11.719,-0.488,-48.340
1789911894.155842,-1.953,-6.348,0.000,-50.781
1789911894.159657,-15.137,-0.977,1.953,-52.734
1789911894.163472,-18.555,1.953,5.859,-53.711
1789911894.167288,-22.949,-0.977,2.441,-50.781
1789911894.171103,-39.062,-12.207,-0.977,-54.688
1789911894.174918,-57.617,-14.648,1.465,-62.012
1789911894.178734,-61.035,-6.348,4.883,-54.199
1789911894.182549,-62.012,-1.953,-0.977,-59.082
1789911894.187378,-62.012,-4.883,-10.742,-79.590
1789911894.191195,-47.363,-8.301,-13.672,-84.473
1789911894.195011,-50.781,-9.766,-12.207,-65.918
1789911894.198828,-47.852,-13.672,-10.254,-57.129
1789911894.202644,-33.691,-18.066,-9.766,-56.641
1789911894.206461,-38.574,-22.461,-10.254,-50.781
1789911894.210278,-39.062,-23.926,-14.160,-55.176
1789911894.214094,-32.715,-21.973,-11.719,-51.270
1789911894.217911,-32.715,-25.391,-10.742,-54.199
1789911894.221727,-35.156,-29.297,-13.672,-63.965
1789911894.225544,-20.996,-28.320,-10.742,-44.434
1789911894.229360,-14.160,-29.785,-13.672,-35.645
1789911894.234074,-10.254,-29.297,-16.602,-43.945
1789911894.237891,1.953,-23.438,-19.531,-42.480
1789911894.241709,-0.488,-22.461,-18.066,-27.832
1789911894.245527,-10.742,-27.832,-20.508,-25.879
1789911894.249345,-4.883,-23.438,-24.902,-33.203
1789911894.253162,3.418,-24.414,-19.043,-33.203
1789911894.256980,3.906,-30.762,-23.438,-18.555
1789911894.260798,9.277,-28.809,-25.391,-0.977
1789911894.264616,7.812,-23.438,-21.484,-4.883
1789911894.268433,8.789,-20.020,-14.648,-8.789
1789911894.272251,10.742,-16.602,-10.742,-3.418
1789911894.276069,16.113,-16.602,-12.207,0.488
1789911894.280951,14.160,-15.625,-15.625,-1.465
1789911894.284770,1.953,-18.555,-21.973,-19.043
1789911894.288589,-7.812,-28.809,-20.996,-29.785
1789911894.292408,-1.953,-28.320,-21.973,-22.949
1789911894.296227,2.441,-21.484,-31.250,-29.297
1789911894.300046,1.953,-18.066,-26.367,-23.438
1789911894.303865,4.395,-19.531,-20.996,-21.484
1789911894.307684,-0.977,-21.973,-24.902,-31.738
1789911894.311503,3.906,-22.461,-24.902,-22.949
1789911894.315322,6.836,-21.973,-22.461,-41.016
1789911894.319141,-0.977,-23.438,-26.855,-43.457
1789911894.322960,-4.395,-24.902,-24.414,-21.973
1789911894.327616,0.000,-25.879,-18.555,-14.160
1789911894.331436,0.000,-22.461,-25.391,-10.254
1789911894.335256,0.000,-28.809,-31.738,-13.672
1789911894.339077,0.000,-30.273,-32.227,-12.695
1789911894.342896,0.000,-24.902,-29.785,4.395
1789911894.346716,0.000,-27.832,-22.949,14.648
1789911894.350537,0.000,-28.809,-24.902,4.883
1789911894.354357,0.000,-25.879,-22.949,-2.930
1789911894.358177,0.000,-23.926,-22.461,-0.977
1789911894.361997,0.000,-24.902,-23.438,2.930
1789911894.365817,0.000,-22.949,-27.832,3.418
1789911894.369637,0.000,-20.996,-30.273,-11.230
1789911894.373206,3.418,-24.902,0.000,-20.996
1789911894.377026,14.160,-23.438,0.000,-8.789
1789911894.380846,6.348,-21.484,0.000,2.930
1789911894.384665,6.836,-23.438,0.000,-3.418
1789911894.388485,20.508,-27.344,0.000,-5.371
1789911894.392305,26.855,-30.273,0.000,0.488
1789911894.396124,25.879,-31.250,0.000,-3.906
1789911894.399944,29.297,-21.973,0.000,-8.789
1789911894.403764,27.344,-16.113,0.000,-10.254
1789911894.407584,29.297,-24.902,0.000,14.160
1789911894.411403,31.738,-26.367,0.000,22.949
1789911894.415223,17.578,-24.902,0.000,-3.418
1789911894.420267,21.973,-20.996,-20.996,-3.906
1789911894.424088,17.578,-22.949,-24.414,-1.465
1789911894.427909,5.859,-30.273,-23.438,0.488
1789911894.431731,10.254,-34.668,-21.973,-3.418
1789911894.435552,12.695,-37.109,-26.367,-11.230
1789911894.439373,13.184,-29.297,-22.461,-1.465
1789911894.443194,20.508,-24.902,-20.020,0.488
1789911894.447015,19.531,-27.344,-20.996,-3.418
1789911894.450836,14.648,-26.855,-20.508,-12.695
1789911894.454658,10.742,-30.762,-19.531,-14.160
1789911894.458479,4.395,-35.645,-23.438,-11.719
1789911894.462300,8.789,-35.645,-20.020,-10.254
1789911894.467243,14.160,-35.156,-21.484,-6.348
1789911894.471065,8.789,-33.691,-21.973,-9.277
1789911894.474888,11.230,-30.762,-13.184,-9.766
1789911894.478710,15.625,-29.785,-19.531,-6.348
1789911894.482533,3.418,-29.297,-25.391,-22.949
1789911894.486355,-6.348,-31.250,-28.809,-35.645
1789911894.490178,-3.418,-32.227,-31.250,-20.020
1789911894.494000,2.441,-25.879,-29.785,-8.301
1789911894.497823,-1.953,-23.926,-25.879,-12.207
1789911894.501645,-1.465,-28.320,-32.227,-26.367
1789911894.505467,-2.930,-25.391,-31.738,-8.789
1789911894.509290,2.930,-26.367,-18.555,7.324
1789911894.514704,0.488,-36.133,-23.926,-12.207
1789911894.518528,-7.324,-39.062,-30.762,-21.973
1789911894.522352,-3.906,-37.109,-32.227,-11.230
1789911894.526177,-8.301,-37.598,-30.762,0.000
1789911894.530001,-13.672,-40.039,-31.738,-6.348
1789911894.533825,-9.277,-37.598,-37.598,-23.438
1789911894.537650,4.395,-36.621,-37.598,-43.457
1789911894.541474,12.207,-32.715,-34.180,-35.645
1789911894.545298,12.695,-31.250,-33.203,0.488
1789911894.549122,6.348,-38.574,-30.273,0.488
1789911894.552947,-2.441,-38.574,-33.691,-23.438
1789911894.556771,-3.906,-31.250,-26.855,-12.207
1789911894.561546,-8.789,-32.715,-24.414,-0.488
1789911894.565371,-13.184,-38.086,-28.809,-21.484
1789911894.569196,-17.578,-36.133,-26.367,-20.996
1789911894.573022,-20.020,-32.227,-24.902,-18.555
1789911894.576847,-17.090,-32.715,-29.785,-27.832
1789911894.580672,-12.207,-34.668,-33.691,-27.344
1789911894.584498,-14.160,-31.250,-34.668,-28.320
1789911894.588323,-19.531,-32.227,-35.156,-27.344
1789911894.592149,-17.578,-31.738,-31.738,-20.996
1789911894.595974,-16.113,-31.738,-37.598,-26.367
1789911894.599799,-14.160,-35.645,-32.715,-37.109
1789911894.603625,-14.160,-36.621,-25.879,-29.297
1789911894.608369,-9.277,-34.668,-26.367,-17.090
1789911894.612195,-7.324,-33.691,-26.367,-13.672
1789911894.616022,-7.812,-27.832,-27.832,-28.320
1789911894.619848,-11.719,-26.367,-30.273,-37.598
1789911894.623675,-12.695,-34.180,-31.250,-16.602
1789911894.627501,-7.324,-32.227,-24.902,-13.184
1789911894.631327,-1.465,-25.879,-21.973,-15.137
1789911894.635154,0.488,-24.902,-23.438,-2.930
1789911894.638980,3.906,-25.391,-19.531,-10.254
1789911894.642807,4.883,-27.344,-19.531,-12.207
1789911894.646633,8.789,-29.785,-18.066,-18.066
1789911894.650459,14.648,-24.414,-16.602,-32.715
1789911894.655069,6.348,-23.438,-21.973,-19.531
1789911894.658896,15.137,-28.320,-19.531,-8.301
1789911894.662724,9.277,-31.738,-19.043,-9.277
1789911894.666551,-9.766,-37.598,-30.762,-22.949
1789911894.670378,-10.742,-44.922,-39.551,-45.410
1789911894.674206,-9.766,-45.410,-30.273,-46.387
1789911894.678033,-16.602,-41.016,-32.227,-31.250
1789911894.681860,-20.020,-39.551,-38.574,-36.621
1789911894.685687,-10.742,-42.480,-33.203,-35.156
1789911894.689514,1.953,-46.387,-32.715,-32.715
1789911894.693342,5.859,-39.551,-33.203,-25.391
1789911894.697169,5.371,-30.273,-29.297,-11.230
1789911894.701726,6.836,-33.691,-28.809,-19.531
1789911894.705554,4.395,-33.691,-31.250,-28.809
1789911894.709382,-0.488,-29.297,-32.227,-30.762
1789911894.713210,3.418,-31.250,-30.762,-27.832
1789911894.717038,3.906,-29.785,-28.809,-20.508
1789911894.720866,0.977,-29.297,-25.391,-19.531
1789911894.724694,-5.371,-30.273,-26.367,-22.461
1789911894.728522,-2.930,-30.273,-31.250,-28.809
1789911894.732350,19.043,-31.250,-36.621,-33.203
1789911894.736178,20.996,-27.344,-36.621,-28.320
1789911894.740006,12.207,-26.367,-27.832,-25.879
1789911894.743834,10.742,-29.785,-25.391,-24.902
1789911894.748812,-2.930,-34.180,-25.391,-29.297
1789911894.752641,-20.020,-35.645,-23.926,-40.039
1789911894.756470,-18.555,-36.621,-23.438,-24.902
1789911894.760299,-10.254,-38.086,-25.391,2.441
1789911894.764129,-9.277,-41.992,-27.344,-13.672
1789911894.767958,0.488,-39.062,-25.879,-46.875
1789911894.771787,1.465,-33.691,-26.855,-39.551
1789911894.775616,-3.906,-33.203,-28.809,-26.855
1789911894.779446,-5.859,-32.715,-26.367,-23.926
1789911894.783275,-5.859,-30.762,-27.344,-29.297
1789911894.787104,-3.906,-24.902,-31.250,-40.527
1789911894.790933,-2.441,-23.926,-28.320,-26.855
1789911894.795830,-0.977,-28.320,-27.344,-26.367
1789911894.799660,0.000,-26.367,-25.391,-41.504
1789911894.803491,0.488,-23.438,-18.555,-42.480
1789911894.807321,-9.766,-31.250,-23.438,-40.527
1789911894.811151,-20.996,-32.227,-29.785,-33.691
1789911894.814982,-22.949,-29.785,-31.738,-31.738
1789911894.818812,-13.184,-34.668,-38.086,-34.180
1789911894.822643,-9.766,-35.645,-38.574,-39.551
1789911894.826473,-7.812,-29.297,-31.738,-22.949
1789911894.830303,-6.836,-33.203,-36.133,-18.555
1789911894.834134,-6.836,-37.598,-38.086,-45.410
1789911894.837964,1.465,-37.598,-30.762,-34.180
1789911894.842770,-2.930,-35.645,-32.715,-21.973
1789911894.846601,-4.395,-32.227,-30.273,-36.133
1789911894.850433,0.977,-27.832,-26.367,-34.668
1789911894.854264,10.254,-22.461,-27.344,-16.602
1789911894.858096,16.113,-22.949,-24.414,-10.742
1789911894.861927,4.395,-26.855,-24.414,-22.461
1789911894.865758,7.324,-26.855,-33.203,-28.320
1789911894.869590,7.324,-24.414,-24.414,-26.367
1789911894.873421,-8.789,-25.391,-19.531,-19.531
1789911894.877253,-12.695,-25.879,-33.203,-21.484
1789911894.881084,-14.160,-27.344,-31.738,-24.414
1789911894.884915,-8.789,-27.344,-29.297,-23.438
1789911894.889699,-4.395,-20.508,-24.902,-14.160
1789911894.893531,-8.789,-16.113,-20.020,-4.883
1789911894.897363,-8.789,-11.719,-22.461,-31.738
1789911894.901196,0.488,-6.348,-22.949,-35.156
1789911894.905028,2.930,-10.742,-18.066,-32.715
1789911894.908860,2.930,-17.578,-19.043,-44.434
1789911894.912693,7.324,-13.672,-27.832,-41.504
1789911894.916525,7.324,-11.230,-22.461,-37.109
1789911894.920357,9.766,-12.695,-12.207,-29.785
1789911894.924190,13.672,-12.695,-10.254,-27.344
1789911894.928022,24.902,-11.230,-11.719,-11.230
1789911894.931855,24.414,-13.184,-15.625,-12.207
1789911894.936538,16.602,-20.508,-13.184,-26.367
1789911894.940372,24.902,-24.902,-10.254,-16.602
1789911894.944205,23.438,-25.391,-15.137,-11.230
1789911894.948038,9.277,-30.762,-25.391,-24.902
1789911894.951871,14.160,-30.762,-31.250,-22.949
1789911894.955704,9.766,-30.762,-30.273,-24.414
1789911894.959538,0.488,-36.133,-32.715,-29.297
1789911894.963371,10.742,-33.691,-26.855,-8.789
1789911894.967204,4.883,-34.180,-26.855,-17.578
1789911894.971037,-6.348,-38.574,-32.227,-33.203
1789911894.974871,-2.441,-39.551,-30.273,-26.367
1789911894.978704,-0.977,-37.598,-37.109,-29.297
1789911894.983320,-6.836,-35.156,-35.645,-33.691
1789911894.987154,-3.906,-33.691,-25.879,-30.762
1789911894.990988,-3.906,-32.227,-27.344,-29.297
1789911894.994822,-4.395,-33.203,-30.762,-22.461
1789911894.998656,-3.418,-33.691,-30.762,-24.902
1789911895.002490,-6.348,-32.715,-33.203,-34.668
1789911895.006324,-10.254,-32.227,-33.691,-36.133
1789911895.010158,-5.859,-29.785,-31.738,-32.227
1789911895.013992,-1.465,-26.855,-32.227,-33.203
1789911895.017826,-4.395,-20.996,-33.691,-47.363
1789911895.021660,-8.789,-20.996,-29.297,-41.504
1789911895.025494,-3.418,-25.391,-24.902,-25.879
1789911895.030108,0.000,-25.879,-23.926,-26.367
1789911895.033943,2.441,-22.949,-23.926,-21.973
1789911895.037778,0.000,-29.785,-21.484,-23.438
1789911895.041613,2.930,-35.156,-23.926,-28.809
1789911895.045448,-3.418,-35.156,-26.855,-23.438
1789911895.049283,-7.812,-40.527,-23.438,-9.766
1789911895.053117,0.977,-36.621,-26.367,-10.742
1789911895.056952,1.953,-32.715,-33.203,-17.578
1789911895.060787,2.930,-36.133,-34.180,-10.254
1789911895.064622,3.418,-36.621,-34.668,-16.113
1789911895.068456,2.441,-31.738,-26.855,-14.648
1789911895.072291,-7.812,-31.738,-22.949,-12.207
1789911895.076783,-14.160,-34.668,-22.949,-16.113
1789911895.080619,-3.418,-25.391,-15.625,-10.254
1789911895.084454,1.465,-26.855,-22.461,-13.672
1789911895.088289,-0.977,-32.715,-31.250,-10.742
1789911895.092125,-10.254,-30.273,-26.367,-11.719
1789911895.095960,-13.184,-25.391,-28.809,-9.766
1789911895.099796,-9.277,-25.879,-28.320,-12.207
1789911895.103631,-4.395,-25.391,-27.344,-21.484
1789911895.107467,-5.859,-25.879,-28.809,-18.066
1789911895.111302,-5.859,-25.879,-27.344,-1.953
1789911895.115138,-0.977,-22.461,-22.949,1.465
1789911895.118973,-6.836,-24.902,-22.949,-19.043
1789911895.123883,-7.324,-26.855,-22.461,-23.926
1789911895.127719,6.836,-23.926,-22.949,-16.602
1789911895.131556,9.766,-25.391,-35.645,-28.320
1789911895.135392,4.395,-24.902,-40.039,-39.062
1789911895.139229,7.324,-22.949,-34.180,-23.926
1789911895.143065,18.066,-20.020,-30.273,-14.160
1789911895.146902,18.555,-19.043,-31.738,-9.277
1789911895.150738,11.230,-21.484,-28.809,-9.766
1789911895.154575,12.695,-21.973,-25.879,-3.906
1789911895.158411,9.766,-28.809,-26.367,4.395
1789911895.162248,11.230,-30.273,-24.902,-0.488
1789911895.166084,12.695,-29.297,-23.438,-4.883
1789911895.170899,9.277,-29.297,-28.320,-9.766
1789911895.174736,7.812,-28.320,-30.762,-14.160
1789911895.178574,2.930,-22.949,-26.855,-15.625
1789911895.182411,5.371,-24.414,-28.320,-15.625
1789911895.186248,10.254,-29.297,-36.133,-18.066
1789911895.190086,1.953,-30.762,-36.133,-33.203
1789911895.193923,-1.953,-32.227,-39.062,-29.785
1789911895.197761,8.301,-23.438,-38.086,-20.020
1789911895.201598,7.324,-23.438,-34.180,-19.531
1789911895.205436,4.395,-31.250,-35.645,-14.648
1789911895.209273,10.254,-32.227,-29.785,-25.391
1789911895.213110,16.602,-26.367,-24.902,-22.949
1789911895.217850,12.207,-27.344,-27.832,-30.762
1789911895.221688,3.418,-27.832,-24.414,-37.598
1789911895.225527,-0.488,-24.414,-27.344,-25.879
1789911895.229365,6.348,-22.949,-30.762,-25.391
1789911895.233203,4.883,-26.855,-35.645,-36.133
1789911895.237041,-8.301,-33.203,-37.598,-34.180
1789911895.240880,-10.742,-37.598,-34.180,-40.527
1789911895.244718,-12.695,-34.668,-31.738,-45.898
1789911895.248556,-15.137,-33.203,-33.691,-28.809
1789911895.252394,-11.719,-35.156,-34.180,-33.203
1789911895.256233,-8.789,-33.691,-29.785,-40.527
1789911895.260071,2.441,-28.320,-29.297,-22.461
1789911895.264760,9.766,-24.414,-24.902,-7.324
1789911895.268600,13.184,-26.367,-22.461,-16.602
1789911895.272439,9.277,-30.762,-26.367,-32.227
1789911895.276278,0.000,-37.598,-24.414,-37.109
1789911895.280117,-0.488,-37.109,-23.926,-48.340
1789911895.283956,-4.883,-33.203,-24.902,-46.387
1789911895.287795,-1.465,-29.297,-27.832,-37.598
1789911895.291634,2.930,-27.344,-27.832,-32.227
1789911895.295473,-0.977,-27.832,-24.414,-31.250
1789911895.299312,-0.488,-24.902,-30.762,-45.410
1789911895.303151,-8.789,-28.320,-29.785,-43.945
1789911895.306990,-16.113,-30.273,-21.973,-32.715
1789911895.311614,-14.648,-26.367,-20.508,-21.484
1789911895.315454,-5.371,-26.367,-18.555,-23.926
1789911895.319294,-2.930,-27.344,-18.066,-36.133
1789911895.323134,-14.648,-32.715,-18.555,-50.293
1789911895.326973,-12.207,-35.156,-21.973,-33.691
1789911895.330813,-0.488,-27.832,-26.855,-17.090
1789911895.334653,5.859,-26.855,-24.902,-27.344
1789911895.338493,6.348,-27.344,-30.273,-15.137
1789911895.342333,12.207,-29.297,-29.297,-13.184
1789911895.346172,13.672,-26.367,-24.414,-26.367
1789911895.350012,6.348,-21.484,-20.020,-23.926
1789911895.353852,4.883,-22.461,-22.949,-27.832
1789911895.358511,1.465,-25.879,-21.973,-23.438
1789911895.362351,-6.348,-32.715,-18.066,-17.578
1789911895.366192,-7.324,-36.133,-22.949,-33.203
1789911895.370032,-4.395,-36.133,-20.508,-42.969
1789911895.373873,-6.348,-38.574,-27.344,-42.969
1789911895.377713,-10.254,-42.969,-37.109,-33.691
1789911895.381554,0.000,-41.992,-36.621,-25.879
1789911895.385395,12.695,-35.645,-34.180,-24.902
1789911895.389235,10.254,-38.574,-34.180,-33.203
1789911895.393076,-3.906,-41.016,-33.691,-38.574
1789911895.396916,-7.324,-39.551,-41.016,-38.574
1789911895.400757,-5.371,-41.504,-38.574,-39.551
1789911895.405267,-5.859,-37.109,-35.645,-32.715
1789911895.409108,-8.301,-36.133,-45.898,-39.551
1789911895.412949,-9.277,-41.992,-45.410,-43.945
1789911895.416790,-1.953,-42.480,-43.457,-33.203
1789911895.420631,-6.836,-41.016,-44.922,-36.621
1789911895.424473,-16.113,-40.527,-44.434,-36.621
1789911895.428314,-13.672,-41.992,-46.387,-35.645
1789911895.432155,-12.695,-45.898,-50.781,-47.363
1789911895.435996,-16.113,-46.387,-54.688,-47.363
1789911895.439837,-15.137,-44.434,-52.734,-50.781
1789911895.443678,-12.207,-41.016,-48.828,-53.223
1789911895.447520,-12.695,-38.086,-41.992,-45.410
1789911895.451984,-3.906,-32.715,-34.180,-31.738
1789911895.455826,9.277,-28.320,-34.180,-25.391
1789911895.459667,17.090,-30.762,-32.227,-29.785
1789911895.463509,20.020,-27.344,-26.855,-24.902
1789911895.467351,12.695,-27.832,-30.273,-29.785
1789911895.471192,14.160,-32.227,-33.203,-19.043
1789911895.475034,15.137,-32.715,-32.227,-14.160
1789911895.478876,6.348,-34.668,-36.621,-29.297
1789911895.482718,0.977,-33.691,-34.668,-30.273
1789911895.486559,-1.465,-31.738,-33.203,-27.344
1789911895.490401,-5.859,-34.668,-34.668,-28.809
1789911895.494243,-7.812,-33.203,-32.715,-31.250
1789911895.499053,-0.488,-31.250,-30.273,-21.973
1789911895.502895,-8.301,-32.715,-31.250,-29.297
1789911895.506738,-1.953,-29.785,-28.809,-34.668
1789911895.510581,12.207,-25.879,-28.320,-30.273
1789911895.514423,7.324,-26.367,-30.762,-28.809
1789911895.518265,8.789,-28.809,-24.414,-35.156
1789911895.522108,17.090,-26.367,-30.273,-33.691
1789911895.525951,15.137,-24.414,-33.203,-38.086
1789911895.529793,16.602,-21.484,-24.414,-45.898
1789911895.533636,18.555,-19.531,-26.367,-36.133
1789911895.537478,14.648,-22.949,-34.668,-20.996
1789911895.541321,5.371,-26.855,-34.668,-22.461
1789911895.546075,5.371,-29.785,-34.668,-34.180
1789911895.549918,11.230,-29.785,-33.691,-34.180
1789911895.553761,11.230,-30.762,-29.297,-33.203
1789911895.557605,12.207,-25.879,-25.391,-21.484
1789911895.561448,21.484,-19.531,-25.879,-7.324
1789911895.565291,25.391,-17.090,-26.367,-18.066
1789911895.569135,25.391,-16.602,-26.855,-21.484
1789911895.572978,19.043,-20.508,-26.367,-31.738
1789911895.576822,12.695,-20.020,-26.367,-27.832
1789911895.580665,6.836,-24.414,-29.297,-30.762
1789911895.584508,-4.883,-36.133,-31.250,-35.645
1789911895.588352,-8.301,-35.156,-27.832,-27.832
1789911895.593081,-6.348,-32.227,-25.879,-30.762
1789911895.596925,-14.648,-28.809,-25.879,-31.250
1789911895.600770,-19.043,-28.809,-25.879,-26.367
1789911895.604614,-14.160,-34.180,-29.297,-28.320
1789911895.608458,-5.371,-33.691,-31.250,-25.391
1789911895.612302,-9.766,-34.180,-30.762,-10.254
1789911895.616146,-8.789,-37.109,-26.855,-16.113
1789911895.619990,0.977,-32.227,-21.973,-22.949
1789911895.623834,-1.953,-30.273,-23.438,-18.066
1789911895.627679,0.000,-34.668,-34.180,-20.508
1789911895.631523,-5.859,-38.574,-32.227,-25.391
1789911895.635367,-8.789,-36.133,-28.809,-20.996
1789911895.639984,0.000,-30.273,-35.645,-33.203
1789911895.643829,-5.371,-33.691,-33.203,-22.949
1789911895.647674,-2.441,-33.691,-31.250,-0.488
1789911895.651518,2.441,-29.785,-27.832,-8.301
1789911895.655363,-5.859,-28.809,-23.926,-20.508
1789911895.659208,-3.906,-23.926,-24.414,-18.555
1789911895.663053,-0.488,-24.902,-30.762,-20.508
1789911895.666898,5.859,-28.320,-30.762,-27.344
1789911895.670742,7.324,-26.855,-23.438,-21.973
1789911895.674587,-6.836,-29.297,-24.902,-31.250
1789911895.678432,-2.930,-28.809,-26.855,-28.809
1789911895.682277,8.301,-30.273,-27.832,-17.578
1789911895.686844,-1.465,-35.645,-29.297,-38.086
1789911895.690690,-6.348,-30.762,-29.785,-44.434
1789911895.694535,2.441,-26.855,-26.855,-19.531
1789911895.698380,0.000,-25.391,-23.926,-9.277
1789911895.702226,-1.953,-20.508,-24.902,-17.578
1789911895.706071,-3.906,-22.949,-26.367,-32.227
1789911895.709917,-4.883,-24.902,-23.926,-27.832
1789911895.713762,2.441,-19.531,-21.973,-11.719
1789911895.717608,-5.859,-21.484,-23.438,-16.602
1789911895.721453,-18.066,-20.996,-20.508,-24.414
1789911895.725298,-17.090,-20.996,-19.043,-22.949
1789911895.729144,-15.137,-27.344,-22.949,-21.484
1789911895.733647,-7.324,-26.367,-28.320,-27.832
1789911895.737493,-10.742,-27.832,-33.203,-45.898
1789911895.741339,-15.137,-31.250,-35.645,-48.340
1789911895.745185,-7.324,-31.738,-34.668,-29.785
1789911895.749031,6.836,-30.273,-34.668,-14.648
1789911895.752877,8.789,-28.320,-32.715,-23.926
1789911895.756723,7.812,-23.926,-27.832,-12.695
1789911895.760569,8.789,-23.926,-26.367,1.465
1789911895.764415,7.812,-23.926,-21.973,-2.930
1789911895.768261,11.230,-19.531,-20.020,-2.441
1789911895.772107,6.348,-27.832,-22.461,1.465
1789911895.775953,2.930,-31.250,-22.949,3.906
1789911895.780394,-0.488,-29.297,-23.926,-6.836
1789911895.784240,0.488,-30.762,-24.902,-19.531
1789911895.788087,2.930,-31.738,-26.855,-14.648
1789911895.791933,7.324,-33.203,-27.344,-3.418
1789911895.795780,3.906,-33.203,-25.391,-6.836
1789911895.799626,6.348,-29.785,-24.414,-9.277
1789911895.803473,10.254,-29.785,-25.391,-1.953
1789911895.807319,-4.883,-31.250,-22.461,-4.395
1789911895.811166,-5.859,-25.391,-21.973,-8.301
1789911895.815012,-4.395,-22.949,-24.902,-10.742
1789911895.818859,-2.930,-22.461,-25.391,-14.160
1789911895.822705,0.488,-20.020,-26.367,-14.648
1789911895.827202,9.277,-18.066,-22.461,-6.348
1789911895.831049,10.742,-16.113,-12.207,2.441
1789911895.834896,2.930,-22.461,-14.160,-19.531
1789911895.838743,9.766,-27.344,-24.414,-23.438
1789911895.842590,0.977,-28.809,-24.414,-20.020
1789911895.846437,-4.883,-27.344,-20.996,-19.043
1789911895.850284,-1.465,-26.367,-25.391,-17.090
1789911895.854131,-3.906,-27.344,-28.809,-18.066
1789911895.857978,5.371,-24.902,-24.902,-13.184
1789911895.861825,25.391,-22.949,-23.438,1.465
1789911895.865672,20.508,-21.484,-24.414,3.906
1789911895.869519,11.230,-22.461,-20.996,-0.488
1789911895.874245,10.254,-21.973,-18.555,9.766
1789911895.878092,7.324,-21.484,-24.414,-0.488
1789911895.881940,7.812,-21.484,-23.926,-6.836
1789911895.885788,7.812,-17.578,-18.066,2.930
1789911895.889636,-1.953,-23.438,-20.508,-8.789
1789911895.893483,-3.906,-30.273,-21.484,-10.254
1789911895.897331,-1.465,-26.367,-21.973,-0.488
1789911895.901179,3.906,-24.414,-20.996,-9.277
1789911895.905026,4.395,-28.320,-18.555,-11.719
1789911895.908874,4.883,-30.762,-16.113,-2.930
1789911895.912722,9.277,-31.738,-20.996,-5.859
1789911895.916570,7.812,-40.527,-23.926,-18.066
1789911895.921276,2.930,-43.457,-26.855,-25.391
1789911895.925124,-2.930,-36.621,-29.297,-19.043
1789911895.928972,-12.207,-37.109,-22.949,-15.625
1789911895.932821,-17.090,-36.133,-22.949,-12.695
1789911895.936669,-17.578,-36.133,-22.461,-12.695
1789911895.940518,-8.301,-35.156,-22.949,-16.602
1789911895.944366,-3.418,-30.273,-26.855,-20.508
1789911895.948215,-7.812,-33.203,-26.855,-31.738
1789911895.952063,-5.859,-35.156,-31.250,-28.320
1789911895.955911,0.488,-35.156,-38.086,-22.949
1789911895.959760,-2.930,-41.016,-39.062,-24.902
1789911895.963608,-13.184,-41.016,-48.828,-20.020
1789911895.968212,-9.766,-37.598,-49.316,-22.949
1789911895.972061,-0.977,-36.621,-41.992,-16.113
1789911895.975910,0.977,-33.203,-47.852,-18.555
1789911895.979759,-1.953,-32.227,-44.434,-14.648
1789911895.983608,-8.789,-36.133,-41.504,-16.602
1789911895.987457,-11.230,-40.039,-45.410,-22.461
1789911895.991306,-9.766,-41.992,-43.945,-27.344
1789911895.995155,-9.766,-37.598,-44.434,-10.742
1789911895.999004,-2.441,-31.738,-41.992,7.812
1789911896.002853,-1.953,-30.273,-41.016,-14.160
1789911896.006702,-3.418,-36.621,-45.410,-26.367
1789911896.010551,-2.441,-41.016,-44.922,-21.484
1789911896.015112,4.395,-33.691,-45.410,-23.438
1789911896.018962,-1.465,-35.645,-53.711,-39.551
1789911896.022812,-10.254,-42.480,-55.664,-30.273
1789911896.026661,-9.277,-43.457,-54.688,-29.297
1789911896.030511,-9.277,-45.898,-57.129,-38.086
1789911896.034360,3.418,-41.016,-56.152,-28.320
1789911896.038210,10.742,-34.180,-54.688,-18.555
1789911896.042059,13.672,-31.250,-56.641,-14.648
1789911896.045909,14.160,-30.273,-48.340,-5.859
1789911896.049759,7.812,-34.180,-49.316,-10.254
1789911896.053608,1.465,-34.668,-50.293,-28.320
1789911896.057458,5.371,-29.297,-48.340,-24.902
1789911896.061973,9.766,-32.227,-48.340,-15.625
1789911896.065823,13.672,-26.855,-41.504,-10.254
1789911896.069674,9.766,-22.949,-41.016,-1.953
1789911896.073524,-5.371,-32.715,-37.598,-7.812
1789911896.077374,-3.418,-33.203,-38.574,-9.766
1789911896.081224,7.324,-29.785,-43.457,-9.277
1789911896.085074,5.371,-28.320,-38.574,-10.742
1789911896.088924,14.648,-26.367,-36.133,9.277
1789911896.092774,38.574,-26.855,-39.062,4.883
1789911896.096624,41.016,-25.879,-42.969,-8.301
1789911896.100474,23.926,-30.762,-43.945,-11.719
1789911896.104325,20.508,-36.621,-46.387,-16.602
1789911896.108791,32.715,-35.645,-54.199,-20.020
1789911896.112641,32.715,-34.668,-54.688,-21.484
1789911896.116492,31.250,-38.574,-49.805,-22.461
1789911896.120343,24.414,-40.527,-50.293,-30.273
1789911896.124193,26.855,-36.621,-51.270,-22.949
1789911896.128044,31.738,-35.645,-44.434,-14.160
1789911896.131894,26.367,-36.621,-51.270,-13.184
1789911896.135745,32.715,-35.156,-49.316,-11.230
1789911896.139596,28.320,-37.109,-43.457,-9.277
1789911896.143446,24.414,-41.992,-53.223,-5.859
1789911896.147297,30.762,-40.039,-48.828,1.465
1789911896.151147,33.203,-35.645,-45.898,3.906
1789911896.155568,29.297,-36.621,-43.457,5.859
1789911896.159419,26.855,-36.621,-41.504,0.488
1789911896.163270,23.438,-36.133,-43.945,-8.789
1789911896.167121,25.879,-32.715,-45.410,-13.184
1789911896.170972,19.043,-34.668,-50.781,-25.391
1789911896.174823,8.789,-41.504,-51.758,-16.113
1789911896.178674,8.789,-39.062,-47.852,-14.160
1789911896.182525,8.789,-36.621,-44.434,-20.508
1789911896.186376,3.906,-36.133,-42.480,-22.461
1789911896.190227,-1.465,-39.062,-43.457,-22.949
1789911896.194078,4.395,-37.598,-43.457,-18.555
1789911896.197929,4.883,-35.645,-43.945,-17.578
1789911896.202298,8.301,-33.203,-43.457,-7.324
1789911896.206149,13.672,-33.691,-44.434,-6.836
1789911896.210001,11.230,-36.133,-42.969,-18.555
1789911896.213852,10.742,-34.180,-40.039,-16.602
1789911896.217703,9.766,-34.668,-42.969,-17.578
1789911896.221555,9.277,-37.598,-41.016,-15.137
1789911896.225406,17.578,-37.598,-41.016,-3.418
1789911896.229258,17.090,-40.039,-46.387,-13.184
1789911896.233109,9.277,-43.945,-47.363,-14.648
1789911896.236960,12.207,-39.062,-42.480,-7.812
1789911896.240812,25.391,-35.645,-41.504,-4.883
1789911896.244663,32.227,-36.621,-41.504,0.000
1789911896.249341,23.926,-40.527,-41.504,0.000
1789911896.253193,17.578,-35.645,-41.504,-5.371
1789911896.257045,22.461,-28.320,-31.738,-0.977
1789911896.260897,33.691,-29.297,-24.902,7.324
1789911896.264749,30.273,-31.738,-28.320,14.648
1789911896.268601,31.738,-32.227,-30.762,8.301
1789911896.272453,27.344,-35.156,-33.203,-2.441
1789911896.276305,22.461,-40.039,-33.203,-5.859
1789911896.280157,14.160,-39.551,-34.668,-6.836
1789911896.284009,0.000,-39.551,-38.574,-5.371
1789911896.287861,-5.859,-41.016,-39.551,-7.812
1789911896.291713,-10.742,-40.527,-40.527,-6.348
1789911896.296396,0.000,-37.598,0.000,0.000
1789911896.300249,0.000,-39.551,0.000,0.000
1789911896.304101,0.000,-39.062,0.000,0.000
1789911896.307954,0.000,-36.133,0.000,0.000
1789911896.311807,0.000,-40.527,0.000,0.000
1789911896.315660,0.000,-42.969,0.000,0.000
1789911896.319512,0.000,-40.039,0.000,0.000
1789911896.323365,0.000,-38.086,0.000,0.000
1789911896.327218,0.000,-42.969,0.000,0.000
1789911896.331070,0.000,-47.852,0.000,0.000
1789911896.334923,0.000,-48.340,0.000,0.000
1789911896.338776,0.000,-46.875,0.000,0.000
1789911896.343334,5.371,-46.387,-45.410,1.953
1789911896.347187,-0.977,-45.410,-46.387,0.977
1789911896.351040,7.812,-41.504,-42.969,-15.137
1789911896.354893,6.836,-37.598,-40.039,-10.254
1789911896.358747,-0.488,-40.039,-40.039,-5.371
1789911896.362600,0.000,-39.551,-43.945,-5.371
1789911896.366453,-3.418,-41.992,-50.293,-12.695
1789911896.370306,-4.883,-46.875,-52.734,-15.625
1789911896.374160,0.000,-42.480,-50.293,-1.465
1789911896.378013,7.812,-43.945,-50.781,0.000
1789911896.381866,3.418,-47.852,-51.758,-4.395
1789911896.385719,1.465,-48.340,-55.176,-5.859
1789911896.390234,-1.465,-57.617,-58.105,-10.254
1789911896.394088,-12.695,-64.941,-58.105,-10.742
1789911896.397942,-3.906,-59.570,-57.617,-4.883
1789911896.401795,3.906,-51.270,-57.129,-8.301
1789911896.405649,0.000,-52.734,-64.453,-22.949
1789911896.409503,11.230,-52.734,-64.453,-14.160
1789911896.413356,20.996,-50.781,-54.199,8.301
1789911896.417210,9.277,-54.688,-49.316,-2.441
1789911896.421064,-3.418,-59.570,-53.711,-8.789
1789911896.424917,-0.977,-62.988,-64.941,-13.672
1789911896.428771,2.930,-64.453,-64.453,-22.461
1789911896.432625,-7.812,-63.477,-68.848,-21.973
1789911896.437173,0.000,-61.523,-73.730,-24.902
1789911896.441027,0.000,-57.617,-67.871,-17.578
1789911896.444881,0.000,-58.105,-64.941,-12.207
1789911896.448735,0.000,-57.129,-66.406,-14.160
1789911896.452590,0.000,-54.199,-66.895,-5.859
1789911896.456444,0.000,-59.082,-65.430,-2.930
1789911896.460298,0.000,-60.059,-66.406,-2.441
1789911896.464152,0.000,-65.918,-72.266,1.953
1789911896.468006,0.000,-75.195,-77.148,-12.207
1789911896.471860,0.000,-70.801,-77.148,-12.695
1789911896.475715,0.000,-62.012,-72.266,-1.953
1789911896.479569,0.000,-54.688,-66.406,9.766
1789911896.483983,17.578,-52.246,-66.406,15.137
1789911896.487837,23.926,-55.664,-63.477,7.812
1789911896.491692,29.785,-58.105,-61.035,12.207
1789911896.495546,28.809,-62.988,-65.918,14.648
1789911896.499401,34.668,-63.965,-69.336,11.719
1789911896.503256,37.109,-61.035,-67.383,13.672
1789911896.507110,25.391,-60.547,-55.664,22.461
1789911896.510965,22.461,-63.965,-54.199,26.367
1789911896.514819,20.508,-63.477,-66.895,6.348
1789911896.518674,20.020,-62.988,-73.242,-14.648
1789911896.522529,15.625,-65.918,-72.266,-10.742
1789911896.526383,6.348,-65.430,-70.801,0.977
1789911896.530764,7.324,-63.965,-72.754,2.441
1789911896.534619,9.766,-64.941,-73.730,-6.348
1789911896.538474,9.766,-60.059,-69.336,-6.348
1789911896.542329,17.090,-54.688,-73.730,8.789
1789911896.546184,12.207,-58.105,-72.754,4.395
1789911896.550039,15.137,-59.082,-72.266,2.441
1789911896.553894,19.531,-61.523,-70.312,23.438
1789911896.557749,13.184,-64.941,-67.871,20.508
1789911896.561604,14.648,-62.988,-71.777,15.625
1789911896.565459,13.184,-62.988,-70.312,20.020
1789911896.569314,14.160,-62.988,-65.918,19.043
1789911896.573169,16.602,-66.406,-71.777,10.254
1789911896.577503,17.090,-64.941,-75.195,-0.977
1789911896.581358,19.043,-61.035,-73.242,5.371
1789911896.585213,20.020,-59.570,-72.754,7.324
1789911896.589069,24.902,-62.012,-75.684,4.883
1789911896.592924,26.367,-62.012,-75.195,4.883
1789911896.596779,19.531,-61.523,-75.195,12.695
1789911896.600635,11.719,-64.453,-82.031,15.625
1789911896.604490,7.812,-69.336,-90.820,0.977
1789911896.608345,13.184,-75.684,-95.215,-7.324
1789911896.612200,14.160,-69.336,-89.844,5.859
1789911896.616056,6.348,-67.871,-85.938,13.184
1789911896.619911,14.648,-66.895,-91.309,6.348
1789911896.624559,24.414,-63.965,-87.402,4.395
1789911896.628415,13.672,-71.777,-81.543,8.789
1789911896.632271,8.789,-73.730,-83.008,20.508
1789911896.636126,9.277,-69.336,-85.938,12.695
1789911896.639982,7.324,-68.848,-102.539,0.000
1789911896.643838,0.977,-72.754,-115.234,-2.930
1789911896.647694,4.883,-71.289,-119.141,-3.906
1789911896.651550,3.906,-73.730,-119.629,-7.324
1789911896.655406,0.000,-73.730,-112.305,-3.418
1789911896.659262,12.695,-68.359,-111.816,5.371
1789911896.663117,10.254,-70.801,-119.629,2.930
1789911896.666973,6.348,-70.801,-116.211,4.395
1789911896.671547,8.301,-66.406,-109.375,4.395
1789911896.675403,6.348,-63.965,-107.910,-3.418
1789911896.679259,6.348,-69.336,-105.957,-2.930
1789911896.683116,7.812,-72.266,-109.375,-1.953
1789911896.686972,-1.465,-74.707,-113.281,-10.254
1789911896.690829,-10.254,-81.055,-118.652,-10.742
1789911896.694685,1.953,-75.684,-115.723,-2.441
1789911896.698541,2.441,-70.312,-108.887,-1.953
1789911896.702398,5.371,-65.918,-102.051,-0.977
1789911896.706254,17.578,-65.430,-100.098,3.418
1789911896.710110,11.719,-64.453,-105.469,-2.441
1789911896.713967,12.695,-61.523,-101.562,6.348
1789911896.718474,16.602,-64.941,-95.215,8.301
1789911896.722331,13.672,-70.312,-97.168,0.977
1789911896.726188,17.090,-69.824,-103.027,-1.465
1789911896.730045,21.973,-67.383,-104.004,0.977
1789911896.733902,16.113,-65.918,-103.027,0.000
1789911896.737758,16.602,-64.453,-104.980,-5.371
1789911896.741615,15.625,-63.477,-100.586,0.977
1789911896.745472,15.137,-63.477,-99.609,2.930
1789911896.749329,19.531,-62.012,-101.074,10.742
1789911896.753186,19.531,-60.547,-105.469,-1.465
1789911896.757043,18.066,-59.082,-107.422,-22.949
1789911896.760899,17.090,-59.570,-96.680,-4.883
1789911896.765429,20.020,-60.059,-88.867,5.859
1789911896.769286,18.555,-61.523,-89.844,-4.395
1789911896.773143,21.484,-58.594,-91.797,-8.301
1789911896.777000,20.508,-53.223,-87.891,3.418
1789911896.780858,19.043,-55.176,-83.984,4.883
1789911896.784715,17.090,-59.570,-89.355,0.000
1789911896.788572,15.625,-56.641,-84.473,0.488
1789911896.792430,29.297,-50.781,-81.543,18.555
1789911896.796287,31.250,-47.852,-86.914,11.719
1789911896.800144,23.438,-46.387,-88.379,-12.207
1789911896.804002,24.414,-44.922,-78.125,-8.301
1789911896.807859,17.090,-47.363,-71.289,-1.465
1789911896.812286,3.906,-56.641,-81.543,-3.906
1789911896.816144,-0.977,-62.012,-90.820,-19.043
1789911896.820001,-4.883,-60.547,-89.844,-26.855
1789911896.823859,-1.953,-61.035,-92.773,-26.855
1789911896.827717,1.465,-60.059,-88.867,-26.367
1789911896.831574,2.441,-57.129,-84.473,-27.832
1789911896.835432,2.441,-55.664,-88.379,-32.715
1789911896.839289,-0.977,-56.152,-85.449,-16.602
1789911896.843147,-5.371,-56.152,-84.961,-12.695
1789911896.847005,-9.277,-57.129,-85.449,-19.531
1789911896.850863,1.953,-55.176,-87.891,-12.695
1789911896.854720,10.742,-55.176,-85.938,-5.371
1789911896.859100,6.348,-59.570,-79.590,-1.465
1789911896.862958,8.301,-62.500,-75.195,-1.953
1789911896.866816,8.301,-62.500,-79.102,-2.441
1789911896.870674,2.441,-61.523,-82.520,-10.254
1789911896.874532,7.324,-57.129,-79.102,1.953
1789911896.878390,12.207,-56.641,-76.660,-5.859
1789911896.882248,13.184,-51.270,-79.590,-14.648
1789911896.886106,9.766,-47.363,-77.148,-4.395
1789911896.889964,5.371,-51.758,-67.871,-10.742
1789911896.893822,-0.977,-49.805,-68.848,-9.277
1789911896.897681,5.859,-52.734,-70.801,-4.395
1789911896.901539,7.812,-57.129,-71.289,-4.395
1789911896.905865,0.000,-53.711,-64.453,1.953
1789911896.909724,0.000,-48.828,-58.105,-4.883
1789911896.913582,0.000,-47.363,-63.477,-1.465
1789911896.917440,0.000,-52.734,-58.105,4.395
1789911896.921299,0.000,-54.199,-65.918,-6.348
1789911896.925157,0.000,-47.852,-69.824,-2.441
1789911896.929015,0.000,-43.457,-64.941,11.719
1789911896.932874,0.000,-46.875,-69.824,14.160
1789911896.936732,0.000,-51.758,-75.684,-3.418
1789911896.940590,0.000,-53.223,-71.289,-2.930
1789911896.944449,0.000,-51.270,-66.406,7.812
1789911896.948307,0.000,-53.223,-73.730,0.488
1789911896.952727,-1.953,-57.617,-72.754,-19.043
1789911896.956585,10.254,-55.664,-78.125,-19.531
1789911896.960444,10.254,-56.641,-78.125,-9.277
1789911896.964303,-11.230,-64.453,-76.660,-9.766
1789911896.968161,-18.555,-66.406,-76.660,-16.602
1789911896.972020,-7.324,-62.500,-73.730,-15.137
1789911896.975879,-14.648,-67.383,-75.195,-19.531
1789911896.979738,-23.438,-71.289,-74.707,-21.973
1789911896.983596,-12.207,-64.941,-76.660,-8.301
1789911896.987455,-15.625,-61.523,-72.754,-3.906
1789911896.991314,-15.625,-64.453,-69.824,-1.953
1789911896.995173,-9.766,-59.570,-63.477,0.488
1789911896.999757,-20.996,-54.199,-61.035,-2.930
1789911897.003616,-24.902,-58.594,-64.453,-22.949
1789911897.007475,-3.906,-59.570,-66.895,-21.484
1789911897.011334,-6.836,-66.895,-70.312,-16.602
1789911897.015194,-19.043,-65.430,-72.266,-19.043
1789911897.019053,-11.719,-54.199,-67.383,-6.348
1789911897.022912,-12.695,-55.176,-70.312,-7.324
1789911897.026771,-7.324,-58.594,-63.965,0.977
1789911897.030631,8.789,-49.805,-54.688,19.531
1789911897.034490,7.812,-50.293,-57.129,8.301
1789911897.038349,14.160,-53.223,-52.246,9.766
1789911897.042208,18.066,-48.828,-46.875,20.508
1789911897.046765,0.000,-49.316,-48.340,10.742
1789911897.050624,0.000,-54.199,-50.781,-5.859
1789911897.054484,0.000,-54.688,-46.875,-0.488
1789911897.058344,0.000,-48.340,-45.898,9.277
1789911897.062203,0.000,-48.828,-51.270,-0.488
1789911897.066063,0.000,-49.316,-50.781,-12.695
1789911897.069923,0.000,-50.293,-57.129,-24.902
1789911897.073782,0.000,-56.152,-58.594,-23.438
1789911897.077642,0.000,-57.617,-50.781,-14.160
1789911897.081502,0.000,-57.617,-46.875,-24.902
1789911897.085361,0.000,-54.688,-50.781,-33.691
1789911897.089221,0.000,-52.246,-51.758,-18.066
1789911897.093744,-5.859,-58.594,-50.781,-27.344
1789911897.097604,-9.277,-57.129,-51.758,-31.738
1789911897.101464,-12.695,-58.105,-49.805,-19.531
1789911897.105324,-18.555,-66.895,-48.340,-18.555
1789911897.109184,-25.391,-67.871,-47.852,-20.996
1789911897.113044,-16.602,-62.988,-51.270,-14.160
1789911897.116904,4.395,-63.477,-52.734,-14.648
1789911897.120764,12.207,-57.617,-48.340,-8.789
1789911897.124625,4.395,-54.199,-50.781,-0.488
1789911897.128485,-2.930,-53.223,-53.223,-9.766
1789911897.132345,0.977,-50.293,-47.852,-11.230
1789911897.136205,6.836,-49.805,-48.340,-17.090
1789911897.140678,-10.254,-53.223,-47.852,-16.113
1789911897.144538,-28.809,-62.012,-49.316,-26.367
1789911897.148399,-20.996,-63.965,-49.805,-29.297
1789911897.152259,-15.137,-61.035,-47.363,-19.043
1789911897.156120,-26.367,-63.477,-48.828,-25.879
1789911897.159980,-26.367,-68.359,-50.781,-32.227
1789911897.163841,-26.855,-69.336,-51.270,-28.809
1789911897.167701,-28.320,-66.406,-45.898,-25.391
1789911897.171562,-28.320,-68.848,-48.340,-38.574
1789911897.175422,-39.551,-73.730,-57.617,-58.105
1789911897.179283,-44.434,-72.754,-57.129,-65.918
1789911897.183143,-39.551,-74.219,-58.105,-60.547
1789911897.187537,0.000,-74.219,-57.617,-54.688
1789911897.191397,0.000,-79.102,-53.223,-59.082
1789911897.195258,0.000,-76.660,-51.270,-46.875
1789911897.199119,0.000,-64.453,-42.480,-33.203
1789911897.202980,0.000,-64.941,-38.574,-23.926
1789911897.206841,0.000,-65.918,-39.062,-10.254
1789911897.210702,0.000,-64.941,-39.551,-18.555
1789911897.214563,0.000,-66.406,-41.016,-25.391
1789911897.218423,0.000,-64.941,-45.898,-32.715
1789911897.222284,0.000,-63.477,-44.434,-40.039
1789911897.226145,0.000,-67.383,-37.109,-28.320
1789911897.230006,0.000,-67.383,-39.062,-30.273
1789911897.234360,-13.184,-65.430,-33.203,-38.574
1789911897.238221,-3.418,-59.082,-35.156,-30.762
1789911897.242083,0.488,-57.617,-41.992,-22.949
1789911897.245944,7.324,-62.012,-38.574,-19.531
1789911897.249805,13.184,-65.918,-29.785,-18.066
1789911897.253666,8.301,-63.477,-32.227,-12.207
1789911897.257527,5.371,-62.500,-41.016,-11.230
1789911897.261388,3.418,-68.359,-36.133,-13.672
1789911897.265249,4.395,-64.941,-41.504,-15.625
1789911897.269111,10.254,-59.570,-52.734,-16.602
1789911897.272972,5.371,-62.500,-48.340,-18.555
1789911897.276833,-12.207,-77.148,-60.547,-40.039
1789911897.281145,-59.082,-128.418,-118.652,-110.352
1789911897.285006,-96.680,-160.156,-148.926,-139.648
1789911897.288868,-104.492,-156.738,-140.137,-131.348
1789911897.292729,-99.121,-154.297,-134.766,-131.836
1789911897.296591,-84.473,-149.902,-131.836,-131.348
1789911897.300452,-76.660,-145.020,-122.559,-132.812
1789911897.304313,-69.824,-134.766,-118.652,-116.699
1789911897.308175,-66.895,-136.230,-119.629,-103.516
1789911897.312036,-64.941,-138.184,-115.234,-113.281
1789911897.315898,-53.223,-130.371,-119.141,-109.863
1789911897.319759,-64.941,-136.230,-112.793,-106.934
1789911897.323621,-75.195,-140.137,-102.051,-95.215
1789911897.327892,-51.270,-132.324,-99.609,-74.219
1789911897.331753,-50.781,-123.535,-98.145,-81.055
1789911897.335615,-66.895,-119.141,-104.004,-106.934
1789911897.339477,-58.594,-110.352,-98.145,-85.938
1789911897.343338,-56.152,-105.469,-78.613,-65.430
1789911897.347200,-64.941,-104.492,-77.148,-72.754
1789911897.351062,-59.570,-102.051,-91.797,-80.078
1789911897.354923,-51.270,-103.516,-98.145,-85.938
1789911897.358785,-54.688,-107.910,-93.262,-89.355
1789911897.362647,-52.246,-105.957,-90.820,-83.496
1789911897.366508,-56.641,-101.562,-83.496,-89.355
1789911897.370370,-57.129,-96.191,-79.102,-81.543
1789911897.374925,-52.246,-89.355,-83.008,-59.570
1789911897.378787,-53.223,-83.496,-80.566,-67.383
1789911897.382649,-68.359,-89.844,-88.867,-82.520
1789911897.386511,-69.336,-99.121,-97.168,-88.867
1789911897.390373,-59.082,-96.680,-90.820,-87.402
1789911897.394235,-50.293,-90.820,-83.008,-74.219
1789911897.398098,-56.152,-92.773,-78.125,-77.148
1789911897.401959,-62.988,-90.332,-80.078,-84.961
1789911897.405822,-57.129,-88.379,-85.938,-73.242
1789911897.409684,-54.688,-91.309,-84.961,-76.172
1789911897.413546,-45.898,-91.797,-84.473,-90.820
1789911897.417408,-47.363,-84.961,-84.961,-76.172
1789911897.421919,-53.711,-80.078,-83.984,-70.801
1789911897.425782,-52.734,-83.008,-77.148,-62.988
1789911897.429644,-61.523,-85.449,-77.148,-57.129
1789911897.433507,-68.359,-83.984,-79.102,-56.641
1789911897.437369,-57.129,-84.961,-75.684,-53.711
1789911897.441232,-46.387,-86.426,-82.520,-66.406
1789911897.445094,-44.922,-84.473,-79.102,-76.660
1789911897.448957,-38.574,-83.496,-69.824,-74.219
1789911897.452819,-39.062,-86.914,-70.312,-73.730
1789911897.456682,-32.227,-84.473,-70.312,-62.988
1789911897.460544,-24.902,-80.078,-72.266,-53.711
1789911897.464407,-24.902,-77.637,-65.918,-55.176
1789911897.468859,-14.648,-71.289,-55.664,-39.062
1789911897.472722,-21.484,-67.871,-54.688,-35.645
1789911897.476585,-36.621,-69.824,-60.547,-54.199
1789911897.480448,-27.344,-68.848,-69.824,-54.199
1789911897.484311,-30.273,-69.336,-69.336,-57.617
1789911897.488174,-48.828,-71.777,-71.289,-69.336
1789911897.492037,-49.805,-75.684,-74.219,-63.477
1789911897.495900,-41.504,-69.824,-66.895,-53.223
1789911897.499763,-41.992,-62.500,-60.547,-56.641
1789911897.503625,-43.457,-64.453,-61.523,-53.711
1789911897.507488,-38.574,-64.941,-55.176,-45.898
1789911897.511351,-30.762,-60.547,-52.734,-52.246
1789911897.515842,0.000,-62.988,-54.688,-56.152
1789911897.519705,0.000,-58.594,-47.363,-49.316
1789911897.523568,0.000,-57.617,-50.293,-53.711
1789911897.527431,0.000,-62.500,-53.711,-50.781
1789911897.531295,0.000,-67.871,-52.246,-54.688
1789911897.535158,0.000,-74.707,-50.781,-67.871
1789911897.539021,0.000,-66.895,-56.641,-59.082
1789911897.542885,0.000,-55.176,-53.223,-58.594
1789911897.546748,0.000,-61.523,-46.875,-57.129
1789911897.550611,0.000,-68.359,-53.711,-65.918
1789911897.554474,0.000,-68.848,-58.105,-71.777
1789911897.558338,0.000,-71.777,-60.059,-61.523
1789911897.562717,-31.738,-71.289,-58.594,-55.176
1789911897.566581,-37.109,-68.848,-53.711,-50.781
1789911897.570444,-35.645,-67.871,-47.363,-58.594
1789911897.574308,-29.297,-66.895,-45.898,-58.105
1789911897.578171,-25.391,-64.941,-46.875,-47.363
1789911897.582035,-30.762,-67.871,-48.340,-49.805
1789911897.585899,-28.320,-65.430,-58.594,-52.734
1789911897.589762,-25.879,-63.477,-50.781,-35.156
1789911897.593626,-32.227,-65.918,-39.551,-38.086
1789911897.597489,-41.016,-62.012,-42.969,-64.453
1789911897.601353,-44.922,-58.594,-40.039,-64.453
1789911897.605217,-29.297,-57.129,-47.363,-59.082
1789911897.609534,-25.391,-56.152,-51.270,-52.246
1789911897.613398,-35.156,-60.547,-47.852,-45.898
1789911897.617262,-36.133,-58.594,-39.551,-39.551
1789911897.621126,-34.180,-49.805,-35.645,-36.133
1789911897.624990,-38.574,-51.270,-39.551,-36.621
1789911897.628853,-40.527,-58.105,-40.039,-40.527
1789911897.632717,-36.621,-60.059,-47.363,-52.734
1789911897.636581,-39.551,-58.105,-50.293,-42.480
1789911897.640445,-42.969,-60.059,-53.711,-47.852
1789911897.644309,-42.480,-60.059,-58.594,-66.895
1789911897.648173,-56.641,-59.570,-64.453,-78.125
1789911897.652036,-66.895,-65.918,-62.988,-96.680
1789911897.656338,-56.641,-63.965,-54.199,-73.730
1789911897.660202,-52.246,-62.988,-55.664,-63.477
1789911897.664066,-60.547,-68.359,-56.641,-72.266
1789911897.667930,-49.316,-69.336,-50.781,-67.383
1789911897.671794,-47.363,-67.871,-48.828,-55.176
1789911897.675658,-50.781,-71.289,-47.363,-47.363
1789911897.679523,-52.246,-67.871,-44.922,-43.945
1789911897.683387,-53.711,-61.523,-45.898,-48.828
1789911897.687251,-45.410,-58.105,-52.246,-66.406
1789911897.691115,-40.039,-58.594,-49.316,-56.152
1789911897.694979,-41.016,-60.547,-46.875,-36.621
1789911897.698843,-51.270,-59.082,-43.945,-50.293
1789911897.703096,-44.922,-56.152,-45.898,-44.434
1789911897.706960,-39.551,-51.758,-52.246,-47.852
1789911897.710824,-50.781,-57.617,-51.758,-62.012
1789911897.714689,-52.734,-62.012,-43.945,-42.480
1789911897.718553,-42.480,-58.105,-50.293,-39.062
1789911897.722418,-41.504,-62.012,-57.129,-43.945
1789911897.726282,-43.945,-65.918,-47.363,-42.969
1789911897.730146,-37.598,-57.617,-46.875,-45.410
1789911897.734010,-35.645,-52.734,-43.945,-48.828
1789911897.737875,-31.250,-53.223,-41.992,-51.270
1789911897.741739,-24.414,-52.734,-45.898,-50.293
1789911897.745604,-16.113,-55.176,-40.039,-51.270
1789911897.750131,-18.555,-51.758,-37.109,-42.480
1789911897.753996,-26.855,-49.805,-39.062,-38.574
1789911897.757860,-30.762,-53.711,-35.645,-51.270
1789911897.761725,-22.461,-52.246,-36.133,-49.316
1789911897.765590,-23.438,-51.758,-41.992,-41.992
1789911897.769455,-31.250,-51.758,-34.180,-41.504
1789911897.773319,-12.207,-47.363,-29.297,-41.504
1789911897.777184,-19.043,-49.316,-42.480,-51.270
1789911897.781049,-32.715,-55.664,-40.527,-40.039
1789911897.784914,-33.203,-63.477,-42.480,-33.203
1789911897.788778,-46.875,-67.871,-51.270,-60.547
1789911897.792643,-40.527,-61.035,-53.223,-67.871
1789911897.797110,0.000,-59.082,-57.129,-59.082
1789911897.800975,0.000,-61.035,-53.223,-61.035
1789911897.804840,0.000,-63.477,-54.199,-70.312
1789911897.808705,0.000,-61.035,-62.500,-63.477
1789911897.812570,0.000,-60.059,-56.641,-55.664
1789911897.816435,0.000,-61.523,-46.387,-68.848
1789911897.820300,0.000,-60.059,-48.828,-77.637
1789911897.824165,0.000,-60.059,-55.176,-78.125
1789911897.828030,0.000,-53.711,-55.176,-61.523
1789911897.831895,0.000,-55.176,-41.504,-52.734
1789911897.835760,0.000,-55.664,-39.551,-80.078
1789911897.839625,0.000,-43.945,-48.340,-72.754
1789911897.843286,-24.902,-44.922,-44.434,-46.387
1789911897.847151,-32.715,-52.246,-42.969,-48.828
1789911897.851016,-47.363,-52.734,-43.945,-63.965
1789911897.854881,-40.527,-49.805,-41.016,-60.059
1789911897.858746,-42.480,-43.945,-41.992,-48.340
1789911897.862611,-43.945,-43.945,-47.852,-55.664
1789911897.866476,-39.062,-48.340,-41.016,-54.199
1789911897.870341,-41.992,-46.875,-38.574,-50.293
1789911897.874206,-29.297,-49.805,-42.480,-54.199
1789911897.878071,-23.438,-48.828,-40.527,-45.410
1789911897.881936,-31.250,-45.898,-42.969,-55.664
1789911897.885801,-25.391,-45.898,-40.039,-66.895
1789911897.890191,-23.438,-45.898,-43.945,-45.898
1789911897.894056,-19.531,-49.316,-49.805,-45.898
1789911897.897921,-23.438,-49.316,-46.875,-53.223
1789911897.901787,-26.367,-45.410,-41.992,-46.387
1789911897.905652,-25.391,-42.969,-35.645,-46.875
1789911897.909517,-28.320,-43.945,-37.598,-58.594
1789911897.913382,-35.156,-49.316,-31.738,-64.941
1789911897.917248,-33.203,-43.945,-25.879,-45.898
1789911897.921113,-12.207,-35.645,-46.875,-33.691
1789911897.924978,-20.996,-41.504,-42.480,-36.621
1789911897.928843,-37.598,-41.992,-29.297,-38.574
1789911897.932709,-37.109,-41.016,-39.551,-55.176
1789911897.937055,-51.758,-54.199,-41.504,-57.617
1789911897.940920,-47.852,-58.594,-38.086,-57.129
1789911897.944786,-31.738,-48.340,-35.156,-51.270
1789911897.948651,-30.762,-45.898,-33.691,-53.223
1789911897.952517,-31.250,-46.875,-37.109,-54.199
1789911897.956383,-36.621,-44.922,-33.691,-54.199
1789911897.960248,-45.898,-39.551,-36.133,-51.758
1789911897.964113,-42.480,-40.039,-34.180,-42.969
1789911897.967979,-40.527,-43.457,-33.691,-40.039
1789911897.971845,-47.852,-44.434,-35.645,-40.527
1789911897.975710,-38.574,-45.898,-32.227,-34.668
1789911897.979576,-35.645,-49.805,-33.691,-30.273
1789911897.983898,-49.316,-57.617,-33.203,-39.551
1789911897.987764,-54.199,-60.059,-28.809,-46.387
1789911897.991630,-41.992,-51.758,-33.691,-41.992
1789911897.995496,-32.715,-49.316,-38.086,-39.062
1789911897.999362,-49.316,-53.711,-33.203,-49.805
1789911898.003227,-59.570,-56.152,-32.227,-62.012
1789911898.007093,-53.223,-53.711,-34.668,-45.410
1789911898.010959,-50.293,-53.711,-36.133,-38.086
1789911898.014825,-42.969,-50.781,-33.203,-47.852
1789911898.018691,-43.457,-47.363,-36.621,-47.363
1789911898.022556,-44.434,-52.246,-42.969,-53.223
1789911898.026422,-48.340,-54.688,-39.551,-68.359
1789911898.030699,-45.410,-49.316,-34.668,-59.082
1789911898.034565,-36.621,-46.875,-28.809,-50.293
1789911898.038431,-37.109,-50.781,-26.855,-53.711
1789911898.042297,-35.645,-45.410,-25.879,-49.805
1789911898.046163,-36.621,-38.574,-24.414,-45.898
1789911898.050029,-35.156,-36.133,-34.180,-61.035
1789911898.053895,-39.551,-40.039,-38.086,-62.500
1789911898.057761,-48.340,-52.734,-36.621,-52.734
1789911898.061627,-50.781,-54.688,-36.133,-56.152
1789911898.065493,-48.828,-52.246,-35.156,-62.988
1789911898.069359,-49.316,-53.223,-36.621,-67.871
1789911898.073225,-57.617,-57.617,-31.250,-54.199
1789911898.077469,-46.387,-53.223,-24.902,-37.109
1789911898.081336,-24.902,-42.969,-20.996,-35.156
1789911898.085202,-35.156,-44.434,-21.484,-42.480
1789911898.089068,-46.875,-44.922,-22.949,-38.086
1789911898.092934,-34.180,-42.969,-23.438,-35.156
1789911898.096800,-22.949,-42.969,-27.832,-32.715
1789911898.100667,-20.020,-41.016,-26.855,-30.273
1789911898.104533,-26.855,-40.039,-28.320,-31.738
1789911898.108399,-30.762,-35.645,-25.879,-22.949
1789911898.112265,-32.715,-35.645,-25.391,-29.297
1789911898.116132,-29.785,-35.156,-25.879,-41.992
1789911898.119998,-31.738,-34.668,-22.461,-51.270
1789911898.124509,0.000,-32.715,-17.090,-41.504
1789911898.128375,0.000,-32.715,-12.695,-41.992
1789911898.132242,0.000,-33.203,-19.043,-57.617
1789911898.136108,0.000,-31.738,-23.438,-56.152
1789911898.139975,0.000,-36.133,-25.879,-55.176
1789911898.143842,0.000,-40.039,-30.273,-60.059
1789911898.147708,0.000,-45.410,-25.879,-67.383
1789911898.151575,0.000,-46.875,-27.344,-72.754
1789911898.155441,0.000,-45.410,-25.879,-63.965
1789911898.159308,0.000,-37.109,-26.367,-45.410
1789911898.163175,0.000,-38.574,-28.320,-38.086
1789911898.167041,0.000,-44.434,-24.414,-43.945
1789911898.171475,-39.551,-40.527,-27.344,-45.898
1789911898.175342,-37.109,-37.109,-25.879,-39.551
1789911898.179209,-22.461,-36.133,-28.809,-40.527
1789911898.183076,-29.297,-40.527,-37.109,-46.387
1789911898.186943,-20.996,-43.457,-37.598,-41.016
1789911898.190810,-8.789,-42.969,-30.762,-34.668
1789911898.194677,-32.227,-48.340,-30.762,-41.992
1789911898.198544,-42.969,-50.781,-28.809,-35.645
1789911898.202411,-34.668,-43.945,-27.832,-17.578
1789911898.206278,-32.715,-44.922,-29.785,-22.461
1789911898.210145,-39.551,-50.781,-30.762,-38.574
1789911898.214011,-38.086,-45.898,-33.203,-40.527
1789911898.218416,-32.227,-37.598,-30.273,-43.457
1789911898.222284,-28.320,-37.109,-32.715,-43.945
1789911898.226151,-29.785,-38.086,-44.434,-49.316
1789911898.230018,-28.320,-37.598,-44.434,-55.176
1789911898.233885,-37.109,-38.574,-40.527,-55.176
1789911898.237752,-40.039,-40.039,-37.598,-46.387
1789911898.241620,-36.621,-38.574,-31.738,-42.480
1789911898.245487,-41.992,-38.574,-29.785,-54.688
1789911898.249354,-44.434,-41.504,-31.738,-50.781
1789911898.253221,-27.344,-39.062,-38.086,-59.570
1789911898.257089,-9.277,-34.668,-37.598,-72.754
1789911898.260956,-25.879,-37.598,-33.691,-51.270
1789911898.265306,-24.902,-37.109,-29.297,-47.363
1789911898.269173,-12.695,-39.551,-34.668,-52.246
1789911898.273041,-29.297,-45.410,-31.250,-40.039
1789911898.276908,-40.039,-42.480,-20.996,-40.039
1789911898.280776,-34.668,-41.016,-26.855,-48.340
1789911898.284643,-32.715,-37.598,-33.203,-42.969
1789911898.288511,-41.016,-41.504,-31.250,-41.504
1789911898.292378,-41.016,-44.922,-29.297,-47.852
1789911898.296246,-36.133,-41.992,-31.250,-44.922
1789911898.300113,-32.715,-46.875,-35.156,-52.246
1789911898.303981,-37.109,-53.223,-38.086,-54.199
1789911898.307848,-39.062,-50.781,-34.668,-56.641
1789911898.312178,-29.297,-47.852,-32.227,-62.012
1789911898.316046,-30.762,-46.875,-35.156,-43.945
1789911898.319913,-38.086,-44.434,-29.785,-32.227
1789911898.323781,-30.762,-37.598,-28.809,-39.062
1789911898.327649,-29.297,-39.062,-28.809,-35.156
1789911898.331517,-52.734,-55.664,-31.738,-41.992
1789911898.335384,-52.734,-55.664,-28.809,-60.059
1789911898.339252,-30.762,-48.828,-26.367,-46.875
1789911898.343120,-31.738,-49.316,-30.762,-48.340
1789911898.346987,-27.344,-47.852,-22.949,-57.617
1789911898.350855,-27.832,-43.945,-26.855,-59.082
1789911898.354723,-41.504,-42.480,-29.297,-59.082
1789911898.359175,-35.645,-43.457,-25.391,-55.664
1789911898.363043,-37.109,-45.410,-29.297,-61.523
1789911898.366911,-37.109,-43.457,-26.855,-49.805
1789911898.370780,-23.438,-43.945,-26.367,-46.875
1789911898.374648,-20.996,-39.062,-26.855,-55.176
1789911898.378515,-20.996,-37.109,-24.902,-55.176
1789911898.382384,-16.113,-39.062,-24.414,-47.852
1789911898.386252,-13.184,-40.527,-18.555,-40.039
1789911898.390120,-19.531,-45.410,-20.996,-41.504
1789911898.393988,-15.137,-45.898,-16.113,-26.855
1789911898.397856,-6.836,-41.016,-7.812,-27.832
1789911898.401724,-3.418,-37.109,-14.648,-44.434
1789911898.405998,-6.348,-42.969,-22.461,-38.086
1789911898.409866,-19.531,-45.410,-18.555,-28.809
1789911898.413734,-21.973,-45.898,-21.973,-37.109
1789911898.417602,-21.484,-41.992,-20.508,-44.434
1789911898.421470,-17.090,-39.551,-23.438,-48.828
1789911898.425339,-16.602,-44.434,-24.902,-54.199
1789911898.429207,-20.020,-42.480,-15.625,-36.133
1789911898.433075,-17.578,-42.969,-16.602,-32.715
1789911898.436944,-8.789,-39.551,-16.602,-33.203
1789911898.440812,4.395,-33.691,-19.531,-29.297
1789911898.444680,1.465,-34.668,-19.531,-41.504
1789911898.448548,-10.254,-38.574,-17.578,-41.016
1789911898.453064,-17.090,-37.598,-18.066,-38.574
1789911898.456932,-17.578,-36.621,-16.113,-33.691
1789911898.460801,-11.230,-35.156,-16.602,-39.551
1789911898.464670,-7.324,-35.156,-21.484,-44.922
1789911898.468538,-8.301,-34.668,-14.648,-37.598
1789911898.472407,-10.742,-29.785,-8.789,-36.621
1789911898.476275,-22.461,-37.109,-12.695,-44.434
1789911898.480144,-17.090,-42.969,-16.113,-48.828
1789911898.484013,-1.465,-35.645,-12.207,-32.715
1789911898.487881,-0.488,-20.508,-4.883,-22.949
1789911898.491750,3.418,-16.113,-2.930,-14.648
1789911898.495618,9.277,-20.996,-1.465,-18.555
1789911898.500094,5.371,-21.484,2.441,-34.668
1789911898.503963,0.977,-20.996,-5.371,-24.414
1789911898.507832,11.230,-18.066,-8.301,-30.762
1789911898.511700,-2.441,-22.461,-8.789,-43.945
1789911898.515569,-13.184,-26.855,-16.113,-20.508
1789911898.519438,1.465,-23.926,-12.695,-19.531
1789911898.523307,1.465,-20.996,-4.883,-23.926
1789911898.527176,3.418,-19.043,-2.930,-9.277
1789911898.531045,5.859,-15.625,-1.953,-20.996
1789911898.534914,2.930,-20.508,0.488,-26.855
1789911898.538783,5.859,-22.461,-3.418,-20.020
1789911898.542652,-2.441,-19.531,-0.977,-19.531
1789911898.547050,1.465,-20.020,-0.488,-16.602
1789911898.550919,-7.812,-20.020,-7.812,-33.203
1789911898.554788,-20.508,-23.438,-17.090,-41.504
1789911898.558658,-17.090,-30.762,-22.949,-48.340
1789911898.562527,-26.855,-31.738,-23.438,-49.805
1789911898.566396,-31.738,-32.227,-21.973,-40.039
1789911898.570265,-25.879,-37.598,-33.691,-51.270
1789911898.574134,-32.715,-40.527,-34.668,-59.570
1789911898.578004,-33.203,-36.133,-29.297,-42.480
1789911898.581873,-31.738,-34.180,-27.344,-36.621
1789911898.585742,-28.809,-31.738,-22.949,-44.434
1789911898.589611,-28.320,-31.250,-24.902,-47.852
1789911898.593977,-24.414,-32.227,-28.320,-48.828
1789911898.597846,-19.531,-29.785,-28.320,-65.430
1789911898.601716,-19.531,-30.273,-26.367,-62.012
1789911898.605585,-14.648,-29.297,-22.949,-25.879
1789911898.609454,-22.949,-29.785,-21.973,-53.711
1789911898.613324,-28.320,-29.297,-17.090,-77.148
1789911898.617193,-24.902,-25.391,-12.207,-44.922
1789911898.621063,-14.648,-26.367,-16.113,-40.039
1789911898.624932,-24.902,-34.180,-19.531,-37.598
1789911898.628802,-34.180,-40.039,-25.879,-36.621
1789911898.632671,-18.555,-31.250,-27.832,-44.434
1789911898.636541,-11.230,-28.809,-18.066,-44.922
1789911898.640887,0.000,-30.762,-15.137,-52.734
1789911898.644757,0.000,-28.809,-23.438,-46.387
1789911898.648626,0.000,-34.668,-29.297,-34.668
1789911898.652496,0.000,-36.621,-25.391,-41.992
1789911898.656366,0.000,-33.691,-28.809,-53.223
1789911898.660235,0.000,-36.133,-32.227,-50.293
1789911898.664105,0.000,-37.598,-28.809,-44.922
1789911898.667975,0.000,-33.203,-31.738,-32.227
1789911898.671844,0.000,-32.227,-28.809,-22.949
1789911898.675714,0.000,-35.156,-29.297,-40.527
1789911898.679584,0.000,-32.715,-29.785,-38.086
1789911898.683454,0.000,-30.273,-29.297,-49.316
1789911898.687756,-20.020,-39.551,-31.250,-48.828
1789911898.691626,-10.254,-42.480,-29.785,-22.461
1789911898.695496,-1.953,-38.574,-27.832,-37.109
1789911898.699366,-4.883,-32.715,-35.156,-36.133
1789911898.703236,-12.695,-31.738,-31.250,-21.484
1789911898.707106,-21.484,-31.738,-21.973,-25.879
1789911898.710975,-15.137,-26.855,-21.973,-21.484
1789911898.714845,-17.090,-32.227,-21.973,-18.066
1789911898.718715,-18.555,-32.715,-29.785,-17.090
1789911898.722585,-10.742,-27.344,-26.367,-29.785
1789911898.726455,-13.672,-29.297,-28.320,-37.598
1789911898.730325,-20.996,-31.738,-29.297,-30.273
1789911898.734627,-27.344,-32.715,-25.391,-23.438
1789911898.738497,-44.922,-32.227,-30.273,-21.484
1789911898.742367,-45.410,-33.691,-32.227,-49.316
1789911898.746237,-36.133,-34.668,-30.273,-54.688
1789911898.750108,-31.250,-32.227,-27.832,-44.434
1789911898.753978,-22.461,-34.668,-32.715,-36.621
1789911898.757848,-26.367,-36.621,-28.809,-39.551
1789911898.761718,-23.926,-33.203,-24.902,-45.898
1789911898.765588,-23.438,-34.180,-30.273,-31.738
1789911898.769458,-19.043,-30.762,-34.668,-29.785
1789911898.773328,-10.742,-24.414,-30.762,-37.598
1789911898.777198,-5.859,-16.602,-21.484,-32.227
1789911898.781426,-6.348,-13.184,-16.602,-26.855
1789911898.785297,-24.414,-21.484,-19.043,-35.156
1789911898.789167,-16.602,-29.785,-27.832,-44.434
1789911898.793037,-13.672,-31.738,-30.273,-46.875
1789911898.796907,-20.996,-31.738,-19.043,-52.734
1789911898.800778,-25.391,-31.250,-20.996,-54.199
1789911898.804648,-26.367,-24.414,-26.855,-40.527
1789911898.808518,-19.043,-27.344,-23.438,-36.621
1789911898.812389,-17.090,-29.297,-28.320,-44.434
1789911898.816259,-27.344,-27.344,-30.273,-56.641
1789911898.820129,-15.137,-22.461,-25.879,-56.641
1789911898.824000,-2.441,-17.578,-25.879,-45.410
1789911898.828230,-1.465,-17.578,-24.414,-40.527
1789911898.832101,4.883,-16.602,-17.578,-32.715
1789911898.835971,1.953,-14.648,-20.508,-35.645
1789911898.839842,-7.812,-15.625,-22.949,-45.898
1789911898.843712,-15.137,-22.461,-20.508,-55.176
1789911898.847583,-14.648,-24.902,-24.414,-42.969
1789911898.851454,-17.090,-21.484,-21.484,-30.273
1789911898.855324,-18.066,-16.602,-19.531,-37.598
1789911898.859195,-17.578,-16.602,-17.090,-39.551
1789911898.863065,-19.531,-17.578,-14.648,-34.180
1789911898.866935,-13.672,-18.066,-14.648,-37.109
1789911898.870806,-18.555,-21.484,-9.277,-44.922
1789911898.875226,-20.508,-24.414,-10.254,-43.945
1789911898.879097,-19.043,-31.250,-24.902,-49.316
1789911898.882968,-28.320,-35.645,-28.320,-57.129
1789911898.886839,-28.320,-37.598,-23.926,-58.105
1789911898.890709,-23.438,-34.180,-10.742,-48.828
1789911898.894580,-33.691,-25.879,-12.695,-54.688
1789911898.898451,-36.133,-29.785,-27.832,-62.500
1789911898.902322,-33.691,-31.738,-26.367,-61.035
1789911898.906193,-38.086,-27.832,-24.414,-51.270
1789911898.910064,-32.227,-29.785,-20.996,-57.129
1789911898.913934,-33.203,-33.691,-26.855,-57.617
1789911898.917805,-36.133,-34.668,-26.855,-44.434
1789911898.922183,-20.508,-32.227,-19.531,-46.875
1789911898.926054,-10.742,-31.738,-25.879,-53.223
1789911898.929925,-22.461,-37.109,-29.785,-46.875
1789911898.933796,-40.527,-44.922,-27.832,-51.270
1789911898.937667,-35.645,-44.434,-24.902,-63.965
1789911898.941538,-24.414,-35.645,-22.949,-61.523
1789911898.945409,-23.438,-36.621,-19.043,-53.223
1789911898.949280,-12.695,-38.086,-17.090,-43.457
1789911898.953151,-12.695,-32.715,-9.766,-40.527
1789911898.957022,-17.090,-28.809,-11.230,-36.133
1789911898.960893,-9.766,-29.297,-17.578,-37.109
1789911898.964764,-16.602,-32.715,-22.949,-42.969
1789911898.969110,-27.832,-34.180,-19.531,-41.992
1789911898.972981,-10.742,-32.715,-18.066,-39.551
1789911898.976852,-5.371,-37.109,-26.855,-41.504
1789911898.980723,-20.996,-39.062,-31.738,-33.203
1789911898.984595,-26.367,-37.109,-28.320,-27.344
1789911898.988466,-27.832,-40.039,-28.809,-43.945
1789911898.992337,-21.973,-41.504,-34.668,-54.199
1789911898.996208,-16.113,-44.434,-34.668,-48.340
1789911899.000080,-11.719,-41.016,-32.227,-43.945
1789911899.003951,-14.160,-37.109,-32.227,-41.016
1789911899.007822,-20.508,-39.551,-34.668,-34.668
1789911899.011693,-15.625,-35.156,-27.832,-24.902
1789911899.016000,-2.930,-27.344,-20.020,-22.949
1789911899.019871,-1.953,-21.484,-33.203,-30.273
1789911899.023743,-17.090,-24.414,-38.086,-36.133
1789911899.027614,-22.461,-32.715,-34.668,-45.410
1789911899.031486,-14.648,-32.715,-31.250,-33.691
1789911899.035357,-19.531,-28.809,-25.879,-28.320
1789911899.039228,-21.973,-26.855,-33.203,-34.668
1789911899.043100,-12.207,-24.414,-33.203,-36.621
1789911899.046972,-17.090,-30.273,-34.668,-38.086
1789911899.050843,-27.344,-34.180,-37.598,-34.180
1789911899.054714,-22.461,-31.250,-38.086,-33.203
1789911899.058586,-16.602,-25.391,-33.203,-32.227
1789911899.062860,-3.906,-20.996,-26.367,-31.738
1789911899.066731,-8.301,-26.367,-27.832,-11.230
1789911899.070603,-24.902,-32.227,-26.367,-5.859
1789911899.074475,-30.762,-33.691,-27.344,-27.832
1789911899.078346,-33.203,-33.691,-30.273,-33.691
1789911899.082218,-33.203,-32.715,-26.367,-29.297
1789911899.086090,-32.227,-31.738,-22.949,-36.621
1789911899.089961,-24.414,-29.297,-27.344,-29.297
1789911899.093833,-25.879,-34.668,-29.297,-22.461
1789911899.097705,-25.391,-34.180,-26.367,-37.109
1789911899.101576,-15.137,-31.250,-29.785,-37.598
1789911899.105448,-20.508,-33.691,-32.715,-37.109
1789911899.109764,-36.621,-34.180,-34.180,-46.875
1789911899.113636,-35.156,-35.645,-42.969,-46.387
1789911899.117507,-22.949,-34.180,-39.551,-43.945
1789911899.121379,-17.578,-29.297,-32.715,-48.828
1789911899.125251,-21.484,-31.250,-27.344,-54.688
1789911899.129123,-16.113,-33.691,-32.227,-51.758
1789911899.132995,-16.602,-33.203,-34.180,-35.156
1789911899.136867,-26.367,-35.645,-34.180,-38.574
1789911899.140739,-14.648,-36.621,-35.645,-52.246
1789911899.144611,-3.906,-36.621,-30.762,-39.062
1789911899.148483,-22.949,-36.621,-31.250,-37.109
1789911899.152354,-36.621,-38.086,-33.691,-49.316
1789911899.156570,-23.926,-38.574,-34.668,-60.547
1789911899.160442,-12.695,-29.297,-29.297,-54.199
1789911899.164314,-5.859,-24.414,-25.879,-37.109
1789911899.168186,-2.930,-27.344,-30.762,-47.363
1789911899.172058,-10.254,-26.367,-31.250,-52.734
1789911899.175930,-17.090,-25.879,-28.320,-44.922
1789911899.179802,-19.043,-29.297,-28.320,-38.086
1789911899.183674,-22.949,-32.715,-25.391,-46.875
1789911899.187546,-38.574,-32.715,-29.297,-63.477
1789911899.191418,-30.762,-27.832,-32.227,-59.082
1789911899.195290,-29.297,-27.832,-28.809,-51.270
1789911899.199162,-41.992,-35.156,-33.691,-54.199
1789911899.203607,-28.320,-39.062,-29.297,-57.129
1789911899.207479,-18.555,-40.039,-23.438,-45.898
1789911899.211352,-22.461,-33.691,-21.484,-39.551
1789911899.215224,-19.043,-35.156,-27.344,-44.922
1789911899.219096,-19.043,-38.086,-34.180,-52.734
1789911899.222969,-21.973,-32.715,-29.785,-46.387
1789911899.226841,-22.949,-29.785,-33.203,-42.969
1789911899.230714,-20.996,-32.715,-33.691,-63.477
1789911899.234586,-14.160,-39.062,-24.414,-63.965
1789911899.238458,-18.555,-38.574,-27.344,-49.316
1789911899.242331,-20.020,-36.621,-36.133,-45.410
1789911899.246203,-9.277,-41.016,-29.297,-54.199
1789911899.250593,-1.465,-41.504,-29.785,-57.617
1789911899.254465,-5.371,-39.062,-34.668,-52.734
1789911899.258338,-10.742,-38.086,-34.180,-50.781
1789911899.262211,-16.602,-41.016,-39.551,-50.781
1789911899.266083,-20.020,-45.898,-38.574,-46.875
1789911899.269956,-14.648,-40.527,-33.691,-46.387
1789911899.273828,-28.320,-43.457,-34.180,-53.711
1789911899.277701,-30.273,-43.457,-35.645,-42.969
1789911899.281574,-19.043,-37.109,-28.809,-22.461
1789911899.285446,-11.230,-38.574,-31.250,-24.414
1789911899.289319,-4.883,-35.645,-30.762,-30.762
1789911899.293191,-8.789,-34.668,-28.809,-31.738
1789911899.297564,-22.461,-38.574,-31.250,-31.250
1789911899.301436,-29.297,-38.574,-29.297,-28.320
1789911899.305309,-19.043,-34.180,-32.715,-35.156
1789911899.309182,-15.137,-35.645,-28.809,-42.480
1789911899.313055,-28.320,-39.062,-20.996,-35.156
1789911899.316928,-31.738,-44.922,-31.250,-41.504
1789911899.320801,-33.203,-50.781,-38.574,-49.805
1789911899.324673,-26.855,-45.410,-31.738,-44.922
1789911899.328546,-18.555,-36.621,-26.367,-30.273
1789911899.332419,-19.531,-33.691,-30.762,-33.203
1789911899.336292,-24.902,-36.133,-33.203,-47.363
1789911899.340165,-15.625,-35.645,-28.320,-38.086
1789911899.344539,0.000,-31.738,-24.414,-24.902
1789911899.348412,0.000,-27.832,-21.484,-21.973
1789911899.352285,0.000,-30.762,-21.973,-20.996
1789911899.356158,0.000,-34.668,-22.949,-27.832
1789911899.360031,0.000,-29.785,-20.020,-29.785
1789911899.363904,0.000,-35.645,-24.414,-25.391
1789911899.367777,0.000,-41.504,-28.809,-23.438
1789911899.371650,0.000,-35.156,-21.484,-30.273
1789911899.375523,0.000,-31.250,-18.555,-27.344
1789911899.379396,0.000,-28.809,-25.391,-17.578
1789911899.383269,0.000,-23.438,-24.902,-16.602
1789911899.387142,0.000,-24.902,-25.879,-21.484
1789911899.391426,-7.812,-29.297,-31.250,-30.273
1789911899.395300,-14.648,-29.297,-34.180,-39.551
1789911899.399173,-14.160,-30.273,-28.320,-28.320
1789911899.403046,-15.625,-32.715,-26.367,-12.695
1789911899.406919,-22.949,-38.574,-34.668,-17.090
1789911899.410793,-20.020,-38.574,-36.133,-13.184
1789911899.414666,-17.578,-38.574,-37.598,-20.020
1789911899.418539,-23.438,-41.504,-28.809,-35.645
1789911899.422412,-22.461,-34.180,-24.414,-31.738
1789911899.426286,-21.484,-34.668,-38.574,-26.855
1789911899.430159,-20.996,-38.086,-42.969,-21.973
1789911899.434032,-19.043,-38.086,-38.086,-28.320
1789911899.438286,-24.414,-40.527,-31.738,-33.203
1789911899.442159,-30.762,-40.039,-37.109,-40.039
1789911899.446033,-23.926,-42.969,-39.062,-41.504
1789911899.449906,-23.926,-43.457,-33.203,-28.809
1789911899.453780,-29.297,-36.621,-26.367,-26.855
1789911899.457653,-30.273,-30.762,-28.320,-45.410
1789911899.461527,-30.273,-32.715,-32.227,-41.504
1789911899.465400,-19.043,-38.574,-24.414,-23.438
1789911899.469274,-25.879,-40.039,-30.762,-19.043
1789911899.473147,-31.738,-41.504,-34.668,-22.461
1789911899.477020,-27.832,-42.969,-27.832,-31.250
1789911899.480894,-26.367,-39.062,-26.855,-23.926
1789911899.485131,-22.461,-39.551,-27.344,-20.996
1789911899.489004,-15.625,-34.668,-33.691,-21.484
1789911899.492878,-10.742,-25.391,-31.738,-25.391
1789911899.496752,-16.602,-23.438,-29.785,-27.344
1789911899.500625,-10.254,-21.484,-32.715,-26.367
1789911899.504499,-11.719,-29.297,-34.180,-24.902
1789911899.508373,-27.344,-39.062,-36.621,-22.949
1789911899.512246,-22.949,-39.551,-36.133,-21.973
1789911899.516120,-18.555,-40.527,-38.086,-27.832
1789911899.519993,-27.832,-39.062,-40.527,-36.621
1789911899.523867,-33.203,-37.109,-32.227,-39.062
1789911899.527740,-27.344,-37.109,-24.414,-30.273
1789911899.531936,-31.738,-39.062,-28.809,-26.855
1789911899.535810,-42.480,-41.504,-32.227,-24.414
1789911899.539684,-34.668,-40.039,-30.762,-11.719
1789911899.543557,-31.738,-41.504,-35.645,-25.391
1789911899.547431,-35.645,-44.434,-39.551,-37.598
1789911899.551305,-32.715,-42.969,-40.527,-41.992
1789911899.555178,-33.691,-37.598,-31.738,-50.293
1789911899.559052,-31.250,-33.203,-30.273,-39.551
1789911899.562926,-25.879,-33.203,-39.062,-38.086
1789911899.566800,-18.066,-29.785,-33.691,-32.227
1789911899.570673,-17.090,-27.832,-29.785,-29.297
1789911899.574547,-13.184,-31.738,-31.250,-37.109
1789911899.578720,-1.953,-29.785,-33.691,-32.227
1789911899.582594,7.324,-25.879,-31.738,-25.391
1789911899.586468,1.465,-27.832,-29.785,-12.695
1789911899.590342,3.418,-27.832,-32.227,-0.977
1789911899.594215,5.371,-28.320,-29.785,2.441
1789911899.598089,-9.277,-30.273,-26.855,2.930
1789911899.601963,-11.719,-32.227,-34.668,-1.953
1789911899.605837,-15.137,-39.062,-42.969,-5.859
1789911899.609711,-16.113,-37.598,-38.574,-14.648
1789911899.613585,-8.301,-34.180,-34.668,-17.578
1789911899.617459,-11.230,-31.738,-38.086,-17.090
1789911899.621333,-21.973,-30.762,-42.480,-40.039
1789911899.625691,-17.090,-33.691,-45.898,-48.340
1789911899.629565,-17.578,-35.156,-46.875,-43.945
1789911899.633440,-27.344,-34.180,-44.434,-44.922
1789911899.637314,-22.461,-28.809,-41.992,-39.551
1789911899.641188,-21.484,-30.273,-41.504,-41.016
1789911899.645062,-29.297,-33.691,-39.062,-58.594
1789911899.648936,-18.555,-32.715,-40.039,-52.734
1789911899.652810,-11.230,-34.668,-45.410,-40.039
1789911899.656684,-23.438,-38.574,-46.875,-46.387
1789911899.660558,-30.762,-37.598,-40.527,-30.273
1789911899.664433,-14.648,-35.645,-39.551,-17.090
1789911899.668307,-7.324,-37.109,-39.062,-26.367
1789911899.672641,-12.207,-34.668,-35.156,-10.742
1789911899.676516,-6.348,-34.668,-35.156,-8.789
1789911899.680390,-13.184,-36.621,-36.133,-33.203
1789911899.684264,-18.066,-32.715,-37.109,-28.320
1789911899.688138,-17.578,-32.715,-33.203,-17.090
1789911899.692013,-9.766,-31.738,-41.504,-17.090
1789911899.695887,-2.441,-31.738,-39.551,-19.043
1789911899.699762,-10.742,-34.668,-22.461,-16.113
1789911899.703636,-22.949,-32.227,-23.926,-6.348
1789911899.707510,-23.926,-31.250,-28.809,-5.859
1789911899.711385,-7.812,-29.297,-31.250,-14.160
1789911899.715259,-3.906,-30.762,-32.715,-18.066
1789911899.719790,-12.695,-40.527,-40.527,-29.785
1789911899.723665,-19.531,-40.039,-35.645,-37.109
1789911899.727539,-20.020,-34.668,-27.832,-24.414
1789911899.731414,-12.695,-34.180,-33.691,-15.625
1789911899.735289,-14.648,-35.645,-34.180,-22.949
1789911899.739163,-18.066,-37.109,-37.109,-25.391
1789911899.743038,-11.719,-32.227,-32.715,-25.391
1789911899.746912,-11.230,-33.691,-27.832,-32.715
1789911899.750787,-21.484,-40.527,-30.273,-30.273
1789911899.754662,-14.160,-37.109,-32.715,-37.109
1789911899.758536,-5.371,-34.180,-37.109,-48.340
1789911899.762411,-14.160,-34.180,-39.062,-25.391
1789911899.766687,-19.531,-38.574,-38.086,-27.344
1789911899.770562,-20.996,-41.504,-36.133,-45.898
1789911899.774437,-13.672,-40.039,-37.598,-35.645
1789911899.778311,-7.324,-41.016,-38.086,-26.367
1789911899.782187,1.953,-37.598,-32.715,-20.020
1789911899.786061,3.906,-35.645,-27.344,-9.277
1789911899.789936,-8.789,-43.457,-32.227,-19.531
1789911899.793811,-16.113,-49.316,-36.621,-25.879
1789911899.797686,-3.906,-46.875,-35.645,-21.973
1789911899.801560,1.953,-47.363,-35.156,-33.691
1789911899.805435,-4.883,-47.363,-41.992,-40.527
1789911899.809310,-7.324,-38.086,-37.598,-25.879
1789911899.813554,-9.766,-35.156,-30.762,-12.207
1789911899.817429,-12.695,-37.598,-32.715,-27.344
1789911899.821304,-9.277,-34.668,-34.668,-29.785
1789911899.825179,-9.766,-40.527,-33.691,-22.949
1789911899.829054,-25.391,-41.504,-33.203,-20.020
1789911899.832929,-23.926,-42.969,-37.598,-18.066
1789911899.836804,-17.578,-49.316,-34.668,-15.137
1789911899.840679,-18.555,-47.852,-38.086,-18.555
1789911899.844554,-17.090,-43.945,-38.574,-25.391
1789911899.848429,-14.648,-41.504,-32.227,-30.273
1789911899.852304,-8.789,-40.039,-33.203,-30.273
1789911899.856179,-5.859,-36.133,-30.273,-20.020
1789911899.860387,-19.043,-41.016,-30.762,-32.227
1789911899.864262,-26.367,-41.992,-33.203,-38.086
1789911899.868137,-21.973,-39.062,-29.785,-31.250
1789911899.872013,-18.066,-44.922,-28.320,-35.156
1789911899.875888,-23.926,-43.457,-26.855,-35.645
1789911899.879763,-23.926,-42.480,-28.320,-33.203
1789911899.883638,-22.461,-48.828,-29.297,-29.297
1789911899.887513,-12.207,-49.316,-30.273,-31.738
1789911899.891388,0.000,-53.711,-32.227,-34.180
1789911899.895263,-17.090,-49.316,-35.156,-37.598
1789911899.899138,-22.461,-42.969,-38.574,-37.109
1789911899.903013,-7.324,-44.434,-34.180,-28.320
1789911899.907196,-12.695,-39.551,-31.250,-38.086
1789911899.911072,-12.695,-35.156,-28.809,-42.480
1789911899.914947,-13.672,-40.527,-35.645,-37.109
1789911899.918822,-9.766,-47.852,-39.551,-31.738
1789911899.922697,-12.695,-48.828,-34.668,-33.203
1789911899.926573,-10.742,-48.340,-35.645,-33.203
1789911899.930448,-12.695,-45.898,-28.320,-38.574
1789911899.934323,-23.926,-40.039,-24.414,-35.156
1789911899.938198,-29.297,-41.992,-38.086,-30.762
1789911899.942074,-26.855,-41.504,-42.480,-34.180
1789911899.945949,-15.137,-40.039,-35.645,-27.832
1789911899.949824,-17.090,-45.898,-37.109,-30.273
1789911899.953983,-24.902,-46.387,-44.434,-29.785
1789911899.957858,-31.250,-44.434,-40.527,-26.855
1789911899.961733,-20.020,-43.945,-37.109,-22.461
1789911899.965609,-10.254,-41.016,-41.992,-25.879
1789911899.969484,-15.137,-38.086,-37.109,-30.273
1789911899.973360,-13.184,-36.621,-27.832,-27.832
1789911899.977235,-14.648,-36.621,-31.250,-29.297
1789911899.981110,-14.648,-29.785,-31.738,-43.945
1789911899.984986,-13.672,-26.855,-22.949,-34.668
1789911899.988861,-19.043,-33.203,-23.926,-28.320
1789911899.992736,-9.766,-41.992,-29.297,-30.762
1789911899.996612,-20.996,-45.410,-32.715,-30.762
1789911900.000958,-29.297,-43.457,-29.785,-29.297
1789911900.004833,-4.395,-42.969,-27.344,-31.738
1789911900.008709,-11.230,-46.875,-33.203,-40.527
1789911900.012584,-21.973,-48.828,-35.156,-46.875
1789911900.016460,-18.555,-44.922,-33.203,-41.992
1789911900.020336,-15.137,-37.109,-39.551,-19.531
1789911900.024211,-16.113,-34.668,-44.922,-21.484
1789911900.028087,-20.996,-37.109,-46.875,-29.785
1789911900.031962,-13.184,-37.598,-39.551,-33.691
1789911900.035838,-0.977,-35.156,-33.203,-35.645
1789911900.039714,-1.953,-31.738,-33.691,-27.344
1789911900.043589,-5.859,-31.738,-32.227,-30.762
1789911900.047904,-16.602,-36.133,-30.762,-35.156
1789911900.051780,-18.555,-43.945,-36.133,-31.738
1789911900.055656,-28.320,-51.270,-36.133,-35.645
1789911900.059532,-33.203,-52.734,-41.016,-36.621
1789911900.063408,-19.531,-50.293,-47.852,-33.691
1789911900.067283,-11.230,-45.898,-41.504,-32.227
1789911900.071159,-11.719,-44.922,-39.062,-34.668
1789911900.075035,-15.625,-45.898,-37.109,-48.828
1789911900.078911,-6.348,-45.898,-33.203,-44.434
1789911900.082787,0.000,-40.039,-32.227,-31.738
1789911900.086662,-6.836,-39.551,-38.086,-35.645
1789911900.090538,-5.859,-46.875,-35.645,-37.109
1789911900.094819,0.488,-41.016,-35.156,-39.062
1789911900.098695,-11.230,-44.434,-43.457,-42.969
1789911900.102571,-22.461,-51.758,-48.340,-43.945
1789911900.106446,-18.555,-50.293,-47.363,-45.410
1789911900.110322,-14.648,-43.457,-46.387,-37.109
1789911900.114198,-13.184,-40.527,-50.293,-25.879
1789911900.118074,-13.672,-41.016,-44.922,-24.414
1789911900.121950,-19.531,-36.133,-38.574,-28.320
1789911900.125826,-7.812,-31.250,-39.062,-16.113
1789911900.129702,-9.277,-35.645,-41.504,-20.020
1789911900.133578,-14.648,-34.668,-38.574,-26.367
1789911900.137454,-1.465,-32.227,-30.273,-29.297
1789911900.141703,-5.371,-38.574,-35.156,-33.691
1789911900.145579,-11.719,-35.156,-44.922,-19.043
1789911900.149455,-8.301,-30.273,-33.203,-19.531
1789911900.153331,-11.719,-29.297,-30.273,-13.672
1789911900.157207,-14.160,-24.902,-30.762,0.000
1789911900.161083,-4.883,-28.320,-27.344,-1.953
1789911900.164959,-4.395,-30.762,-27.344,-4.395
1789911900.168835,-14.648,-33.203,-31.250,-0.488
1789911900.172712,-30.273,-39.551,-32.715,-13.184
1789911900.176588,-29.785,-37.598,-34.180,-16.113
1789911900.180464,-16.113,-33.203,-30.762,-21.484
1789911900.184340,-22.949,-33.691,-22.949,-18.555
1789911900.188564,-14.648,-31.250,-22.949,-2.441
1789911900.192440,-14.648,-27.344,-25.879,-9.277
1789911900.196316,-15.137,-25.879,-22.949,-2.930
1789911900.200192,-14.160,-26.855,-12.695,5.859
1789911900.204069,-31.250,-27.344,-18.555,-6.836
1789911900.207945,-36.621,-31.738,-32.227,-29.785
1789911900.211821,-41.992,-33.203,-31.250,-47.852
1789911900.215698,-40.527,-24.414,-25.879,-46.875
1789911900.219574,-52.246,-20.996,-25.879,-57.617
1789911900.223450,-57.129,-22.461,-23.926,-74.707
1789911900.227326,-58.594,-23.438,-19.043,-67.383
1789911900.231203,-74.707,-22.461,-20.508,-67.383
1789911900.235389,-86.914,-21.973,-25.391,-80.078
1789911900.239265,-86.426,-23.438,-23.438,-75.195
1789911900.243142,-79.590,-23.926,-18.555,-71.289
1789911900.247018,-69.336,-14.160,-13.184,-83.008
1789911900.250895,-80.566,-13.672,-16.113,-99.609
1789911900.254771,-72.266,-10.742,-14.160,-96.191
1789911900.258647,-65.430,-7.812,-9.766,-86.914
1789911900.262524,-83.984,-15.137,-12.695,-77.637
1789911900.266400,-85.938,-18.066,-12.207,-72.754
1789911900.270277,-86.914,-20.508,-17.578,-87.402
1789911900.274153,-89.355,-21.973,-20.996,-101.562
1789911900.278029,-77.148,-21.973,-24.902,-99.609
1789911900.282203,-70.801,-27.344,-22.461,-75.684
1789911900.286080,-70.312,-29.785,-30.273,-59.570
1789911900.289957,-63.477,-31.250,-41.016,-74.219
1789911900.293833,-59.570,-39.551,-39.551,-81.055
1789911900.297709,-57.617,-44.922,-37.598,-63.477
1789911900.301586,-38.574,-42.969,-31.738,-56.152
1789911900.305463,-26.367,-39.551,-27.344,-48.340
1789911900.309339,-39.062,-40.527,-29.785,-47.852
1789911900.313215,-40.039,-46.875,-30.762,-51.270
1789911900.317092,-25.391,-49.805,-31.738,-41.504
1789911900.320969,-23.926,-42.480,-33.203,-37.598
1789911900.324845,-25.879,-40.039,-32.227,-24.902
1789911900.328990,-12.207,-38.574,-30.762,-23.926
1789911900.332867,-17.578,-40.039,-33.691,-27.344
1789911900.336743,-20.508,-41.016,-37.598,-26.367
1789911900.340620,-9.277,-40.527,-35.645,-18.555
1789911900.344496,-1.465,-40.527,-35.156,-12.207
1789911900.348373,5.859,-36.621,-36.621,-21.973
1789911900.352250,-4.395,-36.621,-37.598,-14.648
1789911900.356127,-2.441,-34.668,-39.062,-2.441
1789911900.360003,11.230,-34.180,-35.645,-11.719
1789911900.363880,2.441,-40.527,-33.691,-8.301
1789911900.367756,0.000,-41.504,-34.668,2.441
1789911900.371633,4.395,-41.992,-40.527,-13.672
1789911900.375975,0.000,-37.598,-29.785,-13.184
1789911900.379852,0.000,-31.250,-26.367,-6.836
1789911900.383729,0.000,-30.762,-35.156,-20.996
1789911900.387606,0.000,-36.133,-37.598,-30.273
1789911900.391483,0.000,-44.434,-41.016,-26.855
1789911900.395360,0.000,-45.410,-41.504,-20.996
1789911900.399236,0.000,-41.016,-45.410,-24.902
1789911900.403113,0.000,-49.316,-53.223,-31.738
1789911900.406990,0.000,-58.594,-57.617,-38.086
1789911900.410867,0.000,-61.523,-62.500,-39.062
1789911900.414744,0.000,-60.547,-63.477,-35.645
1789911900.418620,0.000,-62.012,-62.988,-44.922
1789911900.422920,-34.180,-67.871,-57.129,-48.340
1789911900.426796,-18.555,-70.312,-58.105,-41.992
1789911900.430673,-18.066,-68.848,-58.594,-35.645
1789911900.434551,-21.973,-61.035,-52.246,-30.762
1789911900.438427,-17.578,-62.012,-51.758,-27.832
1789911900.442304,-20.020,-60.547,-54.688,-22.949
1789911900.446182,-13.672,-61.035,-60.059,-33.203
1789911900.450058,-12.695,-63.477,-60.547,-40.527
1789911900.453935,-20.020,-60.547,-65.430,-44.434
1789911900.457813,-25.879,-60.547,-63.477,-47.852
1789911900.461689,-28.320,-57.617,-55.664,-36.133
1789911900.465566,-29.785,-53.711,-57.129,-33.691
1789911900.469843,0.000,-63.477,-61.523,-44.922
1789911900.473721,0.000,-76.172,-67.871,-49.805
1789911900.477598,0.000,-80.078,-79.590,-43.457
1789911900.481475,0.000,-82.520,-83.008,-52.246
1789911900.485352,0.000,-83.984,-80.078,-68.848
1789911900.489229,0.000,-83.496,-81.055,-66.895
1789911900.493106,0.000,-81.055,-85.938,-70.801
1789911900.496984,0.000,-82.031,-92.773,-78.613
1789911900.500861,0.000,-79.102,-86.426,-66.406
1789911900.504738,0.000,-73.242,-83.008,-65.430
1789911900.508615,0.000,-69.824,-84.961,-71.777
1789911900.512492,0.000,-70.801,-85.449,-59.570
1789911900.516780,-67.383,-74.707,-79.590,-65.430
1789911900.520658,-72.754,-81.055,-83.008,-71.289
1789911900.524535,-63.965,-80.566,-92.285,-60.547
1789911900.528412,-50.293,-77.637,-86.426,-57.617
1789911900.532290,-54.199,-79.590,-79.590,-64.941
1789911900.536167,-64.941,-75.684,-74.707,-66.406
1789911900.540045,-62.012,-69.336,-63.965,-66.406
1789911900.543922,-47.852,-64.453,-59.082,-52.246
1789911900.547799,-37.598,-54.199,-53.711,-40.527
1789911900.551677,-28.320,-44.922,-49.316,-34.668
1789911900.555554,-39.551,-50.293,-45.410,-14.160
1789911900.559431,-54.688,-53.223,-39.062,-29.297
1789911900.563634,-44.922,-49.316,-48.828,-43.457
1789911900.567511,-40.527,-46.875,-48.340,-35.645
1789911900.571389,-39.551,-43.457,-42.969,-36.621
1789911900.575266,-45.410,-44.434,-43.945,-41.992
1789911900.579144,-55.176,-44.922,-41.016,-39.551
1789911900.583021,-51.758,-44.434,-41.016,-30.762
1789911900.586899,-42.480,-43.945,-44.434,-31.250
1789911900.590776,-38.086,-43.457,-52.734,-23.926
1789911900.594654,-47.363,-48.340,-54.199,-22.949
1789911900.598531,-59.570,-44.922,-43.945,-19.531
1789911900.602409,-52.734,-36.133,-42.480,-22.949
1789911900.606286,-44.922,-36.621,-47.363,-38.574
1789911900.610472,-45.410,-36.133,-50.781,-30.273
1789911900.614350,-50.293,-34.180,-43.457,-37.109
1789911900.618227,-54.199,-41.992,-41.992,-42.969
1789911900.622105,-55.176,-45.898,-51.758,-51.270
1789911900.625983,-56.152,-43.945,-47.852,-56.641
1789911900.629860,-41.992,-51.270,-54.199,-49.805
1789911900.633738,-38.086,-56.152,-56.641,-56.641
1789911900.637615,-50.781,-58.105,-59.082,-58.105
1789911900.641493,-60.059,-60.547,-65.430,-53.711
1789911900.645370,-63.965,-59.082,-66.895,-43.457
1789911900.649248,-62.988,-55.664,-68.848,-40.039
1789911900.653126,-51.758,-54.688,-67.871,-42.969
1789911900.657698,-49.805,-50.781,-67.871,-40.039
1789911900.661576,-38.574,-49.316,-63.477,-43.457
1789911900.665454,-21.973,-53.711,-63.477,-54.199
1789911900.669332,-33.203,-48.340,-62.500,-45.410
1789911900.673209,-41.992,-42.969,-57.129,-29.297
1789911900.677087,-35.645,-43.457,-55.176,-32.227
1789911900.680965,-38.086,-46.875,-53.223,-29.785
1789911900.684843,-32.715,-44.922,-50.781,-14.160
1789911900.688721,-28.320,-39.062,-49.805,-20.996
