timestamp,TP9,AF7,AF8,TP10
1789910723.918275,-0.488,0.000,-0.488,-0.488
1789910723.922134,0.000,0.000,-0.488,0.000
1789910723.925994,0.488,-2.441,2.930,0.000
1789910723.929854,-2.441,3.906,-19.043,-2.441
1789910723.933713,11.230,-20.508,75.684,11.230
1789910723.937573,13.672,-77.148,-15.137,-0.977
1789910723.941432,-12.695,-74.219,-169.434,-15.625
1789910723.945292,-15.137,-46.387,-91.797,-0.488
1789910723.949152,4.395,-45.898,-85.449,-3.418
1789910723.953011,16.113,-52.734,-86.914,-7.324
1789910723.956871,0.977,-57.617,-83.496,1.953
1789910723.960730,-17.578,-64.941,-83.984,-8.789
1789910723.963470,-8.789,-65.918,-87.891,-22.949
1789910723.967237,10.742,-55.664,-79.590,-8.301
1789910723.971003,-14.160,-60.547,-78.613,-16.602
1789910723.974770,-25.879,-54.199,-79.590,-4.883
1789910723.978536,0.488,-42.969,-77.148,3.418
1789910723.982302,26.367,-54.199,-86.426,-9.277
1789910723.986068,9.766,-50.781,-94.238,-5.859
1789910723.989835,-17.578,-55.664,-89.844,-0.488
1789910723.993601,-5.371,-67.871,-85.449,-2.441
1789910723.997367,20.508,-57.617,-87.891,-19.531
1789910724.001134,23.926,-47.363,-88.379,-13.672
1789910724.004900,-8.789,-47.363,-83.984,-6.348
1789910724.006345,-12.207,-42.969,-71.289,-7.812
1789910724.010015,3.418,-63.477,-80.566,-17.090
1789910724.013684,10.254,-70.312,-81.543,-25.391
1789910724.017354,-8.789,-71.777,-78.613,-17.578
1789910724.021024,-23.926,-77.148,-80.078,-14.160
1789910724.024693,-19.043,-71.777,-79.590,-23.438
1789910724.028363,-3.418,-64.941,-84.473,-18.555
1789910724.032032,-1.953,-56.641,-77.637,-0.977
1789910724.035702,-29.785,-52.246,-70.312,-20.996
1789910724.039371,-40.039,-49.805,-75.195,-34.668
1789910724.043041,-18.066,-52.734,-76.172,-41.016
1789910724.046711,6.836,-50.293,-62.500,-24.902
1789910724.047189,-15.625,-46.875,-60.547,-18.066
1789910724.050771,-38.086,-63.965,-81.055,-38.574
1789910724.054351,-20.508,-68.848,-78.125,-35.156
1789910724.057932,-6.348,-46.387,-62.988,-17.090
1789910724.061513,-29.785,-56.641,-72.754,-17.578
1789910724.065094,-49.316,-82.520,-77.148,-37.109
1789910724.068675,-27.832,-85.938,-76.660,-36.621
1789910724.072256,9.766,-75.684,-66.406,-16.113
1789910724.075837,7.812,-71.289,-54.199,-10.742
1789910724.079418,-38.086,-87.891,-67.383,-34.668
1789910724.082999,-41.992,-97.168,-71.777,-53.223
1789910724.086580,-16.602,-89.844,-76.660,-58.105
1789910724.087085,-35.156,-83.496,-71.777,-47.852
1789910724.090602,-58.105,-95.215,-74.219,-50.781
1789910724.094119,-45.410,-94.238,-79.102,-55.664
1789910724.097636,-26.367,-89.355,-72.754,-51.270
1789910724.101152,-20.508,-92.285,-68.359,-46.875
1789910724.104669,-38.086,-91.309,-69.824,-42.969
1789910724.108186,-45.410,-84.961,-72.754,-30.762
1789910724.111703,-14.648,-72.266,-63.965,-25.879
1789910724.115220,-3.906,-69.336,-65.918,-33.203
1789910724.118737,-34.668,-74.707,-70.312,-37.109
1789910724.122254,-42.480,-75.195,-70.312,-40.039
1789910724.125771,-30.273,-62.988,-71.777,-38.086
1789910724.127028,-4.395,-36.621,-69.824,-33.203
1789910724.130508,-15.137,-37.109,-71.777,-25.391
1789910724.133987,-43.945,-50.781,-66.406,-27.344
1789910724.137466,-34.180,-52.246,-68.359,-28.320
1789910724.140945,-8.789,-52.246,-70.801,-33.203
1789910724.144424,-19.043,-38.086,-52.246,-23.926
1789910724.147904,-43.945,-38.574,-60.059,-18.555
1789910724.151383,-46.875,-64.941,-72.754,-37.598
1789910724.154862,-18.066,-68.848,-63.477,-34.180
1789910724.158341,1.465,-61.523,-56.152,-23.926
1789910724.161821,-18.066,-59.082,-57.617,-18.555
1789910724.165300,-45.410,-56.641,-55.664,-21.973
1789910724.168327,-27.832,-51.270,-56.641,-32.715
1789910724.171800,14.160,-35.645,-55.664,-20.020
1789910724.175273,-8.301,-37.109,-46.387,-17.090
1789910724.178746,-13.184,-56.152,-56.152,9.766
1789910724.182219,18.555,-46.387,-63.965,30.273
1789910724.185692,-13.184,-34.180,-70.312,-40.527
1789910724.189165,-41.504,-30.762,-67.871,-42.969
1789910724.192638,-53.223,-37.598,-81.055,-27.832
1789910724.196111,-45.898,-46.875,-80.566,-45.898
1789910724.199584,-24.414,-41.992,-80.566,-52.246
1789910724.203057,-32.715,-43.945,-83.984,-54.199
1789910724.206530,-39.062,-36.133,-62.500,-49.805
1789910724.210078,-33.203,-26.367,-59.570,-40.527
1789910724.213552,-17.090,-46.387,-75.195,-33.203
1789910724.217026,-13.184,-61.523,-78.613,-42.480
1789910724.220500,-40.039,-66.406,-67.871,-39.062
1789910724.223974,-43.945,-65.430,-58.105,-30.273
1789910724.227448,-35.156,-73.242,-58.594,-39.551
1789910724.230922,-21.973,-76.660,-60.059,-34.180
1789910724.234395,-30.762,-63.965,-56.152,-23.438
1789910724.237869,-38.574,-55.664,-44.922,-23.926
1789910724.241343,-31.738,-73.730,-60.547,-30.273
1789910724.244817,-26.855,-89.844,-79.102,-54.199
1789910724.248291,-26.855,-72.754,-60.059,-39.062
1789910724.252241,-51.270,-67.871,-61.035,-30.762
1789910724.255720,-41.504,-69.336,-49.316,-37.598
1789910724.259199,-20.020,-84.473,-43.457,-39.551
1789910724.262677,-32.715,-102.051,-72.754,-48.828
1789910724.266156,-59.570,-98.145,-68.359,-52.246
1789910724.269635,-58.594,-89.844,-59.082,-57.617
1789910724.273114,-21.484,-89.844,-61.035,-39.551
1789910724.276593,-10.742,-89.844,-48.340,-41.504
1789910724.280071,-35.156,-81.055,-53.223,-44.434
1789910724.283551,-39.551,-63.965,-47.363,-38.574
1789910724.287029,-16.113,-39.551,-36.133,-31.250
1789910724.290508,1.953,-40.039,-52.734,-36.621
1789910724.295807,-29.785,-48.828,-46.875,-45.410
1789910724.299303,-60.059,-49.316,-41.016,-53.223
1789910724.302799,-50.293,-51.270,-51.758,-61.035
1789910724.306294,-17.090,-37.598,-33.691,-51.270
1789910724.309790,-20.508,-30.273,-16.113,-46.387
1789910724.313286,-76.660,-55.664,-41.504,-70.312
1789910724.316781,-95.215,-53.223,-40.527,-84.961
1789910724.320277,-55.664,-42.480,-20.508,-80.078
1789910724.323773,-55.176,-44.922,-18.066,-86.426
1789910724.327268,-97.168,-21.973,-13.672,-96.191
1789910724.330764,-106.934,-8.301,0.488,-105.469
1789910724.334260,-104.980,-9.277,9.277,-120.605
1789910724.339589,-122.070,-14.160,3.906,-145.508
1789910724.343100,-158.203,-8.301,3.906,-166.992
1789910724.346611,-167.480,16.602,20.020,-150.391
1789910724.350122,-137.695,18.066,27.344,-151.367
1789910724.353633,-106.934,23.438,6.836,-160.156
1789910724.357144,-119.141,27.832,6.836,-149.902
1789910724.360655,-167.969,5.859,8.789,-152.832
1789910724.364166,-160.645,-15.625,2.930,-150.879
1789910724.367677,-104.492,-11.719,13.184,-131.348
1789910724.371188,-112.793,-29.297,-5.371,-130.859
1789910724.374699,-131.836,-37.109,-18.555,-114.746
1789910724.378210,-120.605,-31.738,-21.484,-100.098
1789910724.383584,-89.355,-60.059,-23.926,-107.422
1789910724.387110,-68.359,-65.918,-30.273,-98.145
1789910724.390635,-79.590,-51.758,-42.480,-75.195
1789910724.394160,-62.500,-49.316,-34.668,-52.734
1789910724.397685,-34.180,-53.711,-49.316,-53.711
1789910724.401210,-33.203,-72.266,-72.266,-58.105
1789910724.404735,-57.617,-68.848,-70.312,-49.805
1789910724.408260,-64.453,-52.246,-68.848,-48.340
1789910724.411785,-41.992,-63.477,-72.754,-55.176
1789910724.415310,-7.812,-70.312,-72.266,-43.945
1789910724.418835,-9.766,-56.152,-76.660,-25.391
1789910724.422360,-32.715,-59.082,-85.938,-33.691
1789910724.427793,-2.441,-42.969,-72.754,-16.113
1789910724.431331,26.855,-40.527,-68.848,0.000
1789910724.434870,-0.977,-68.359,-88.867,-20.508
1789910724.438408,-39.551,-65.430,-97.168,-23.438
1789910724.441946,-46.387,-52.246,-91.797,-19.043
1789910724.445485,-20.020,-57.129,-90.820,-22.461
1789910724.449023,-4.883,-62.988,-97.656,-19.531
1789910724.452561,-10.742,-53.711,-78.613,-0.488
1789910724.456100,-19.043,-52.246,-73.730,-11.230
1789910724.459638,-12.207,-47.363,-88.867,-31.738
1789910724.463176,17.090,-38.574,-80.566,-20.996
1789910724.466715,11.719,-36.621,-92.773,-15.137
1789910724.472173,-4.883,-55.664,-105.957,-1.465
1789910724.475723,-10.742,-69.336,-82.031,-8.301
1789910724.479274,-14.648,-44.922,-69.824,-36.621
1789910724.482825,-32.715,-51.758,-83.496,-43.457
1789910724.486375,-32.715,-57.129,-72.754,-11.719
1789910724.489926,-34.668,-62.500,-84.473,-27.344
1789910724.493476,-13.184,-69.336,-90.332,-51.270
1789910724.497027,-12.695,-66.895,-63.477,-23.438
1789910724.500578,-45.898,-80.566,-72.266,-18.066
1789910724.504128,-43.457,-91.797,-80.566,-36.133
1789910724.507679,8.789,-87.402,-69.336,-17.578
1789910724.511230,33.691,-68.359,-67.383,4.883
1789910724.517506,-20.020,-70.801,-75.195,-10.742
1789910724.521073,-29.297,-72.266,-67.383,4.395
1789910724.524640,-5.371,-63.477,-73.730,2.930
1789910724.528207,7.812,-56.152,-86.426,-9.277
1789910724.531774,-1.465,-53.223,-77.637,-1.953
1789910724.535341,-30.762,-66.895,-76.172,6.836
1789910724.538907,-29.785,-85.449,-93.262,0.977
1789910724.542474,1.465,-87.891,-103.027,-13.672
1789910724.546041,-3.418,-69.824,-85.938,-10.742
1789910724.549608,-29.297,-61.523,-83.008,-12.695
1789910724.553175,-21.973,-58.105,-84.473,-13.672
1789910724.556742,4.883,-48.828,-82.520,-14.648
1789910724.562916,-2.441,-64.453,-94.727,-19.531
1789910724.566497,-36.621,-93.750,-99.121,-25.391
1789910724.570079,-49.316,-94.727,-98.633,-35.156
1789910724.573660,-29.297,-84.473,-95.215,-35.156
1789910724.577241,-13.672,-90.820,-94.727,-30.273
1789910724.580823,-23.438,-73.242,-81.055,-17.578
1789910724.584404,-35.156,-77.637,-82.520,-3.906
1789910724.587985,-22.461,-98.633,-101.562,-11.230
1789910724.591567,5.859,-81.055,-92.773,-23.926
1789910724.595148,0.000,-78.613,-82.520,-15.137
1789910724.598729,-28.809,-88.867,-84.961,-17.090
1789910724.602311,-23.438,-76.660,-100.586,-20.996
1789910724.608341,3.906,-66.895,-94.727,-11.230
1789910724.611936,-0.977,-75.195,-72.266,-10.742
1789910724.615530,-38.086,-87.402,-75.684,-17.090
1789910724.619124,-28.809,-81.055,-75.684,-3.418
1789910724.622718,8.789,-85.449,-69.824,-10.742
1789910724.626312,14.160,-79.590,-74.219,-17.578
1789910724.629906,-18.066,-83.008,-80.078,-9.766
1789910724.633500,-39.551,-93.262,-78.613,-10.742
1789910724.637094,-28.809,-102.539,-83.496,-22.949
1789910724.640688,-9.277,-106.445,-87.891,-22.461
1789910724.644283,-30.762,-112.305,-87.891,-8.301
1789910724.647877,-38.574,-104.980,-75.684,-4.883
1789910724.654523,-24.414,-108.887,-80.566,-33.691
1789910724.658132,-8.789,-129.883,-96.680,-42.969
1789910724.661741,-15.625,-127.441,-85.449,-20.020
1789910724.665350,-43.945,-122.070,-92.773,-20.508
1789910724.668959,-48.828,-122.559,-104.004,-32.227
1789910724.672568,-14.160,-126.465,-94.238,-21.973
1789910724.676177,1.953,-134.766,-81.055,-22.461
1789910724.679786,-19.531,-122.070,-74.707,-20.020
1789910724.683395,-23.438,-111.816,-74.219,-13.184
1789910724.687005,-12.695,-134.277,-81.543,-35.156
1789910724.690614,-11.230,-137.207,-89.844,-44.434
1789910724.694223,-36.133,-128.906,-88.379,-33.203
1789910724.700588,-40.527,-135.254,-77.148,-20.508
1789910724.704210,-13.672,-137.695,-74.219,-24.414
1789910724.707832,0.000,-141.113,-79.102,-33.691
1789910724.711453,-23.926,-145.508,-72.266,-36.621
1789910724.715075,-46.387,-144.531,-77.637,-41.016
1789910724.718697,-29.297,-130.859,-81.543,-36.133
1789910724.722319,-5.859,-149.902,-82.520,-36.621
1789910724.725941,-19.043,-164.062,-85.449,-34.180
1789910724.729563,-56.641,-153.320,-83.496,-37.109
1789910724.733184,-56.152,-160.156,-85.449,-47.363
1789910724.736806,-14.648,-154.297,-74.707,-37.598
1789910724.740428,-9.277,-152.832,-75.684,-39.551
1789910724.746582,-42.969,-151.367,-83.496,-38.086
1789910724.750215,-52.734,-147.461,-79.102,-31.250
1789910724.753848,-18.066,-146.484,-72.266,-36.133
1789910724.757481,-8.301,-148.926,-83.008,-37.109
1789910724.761114,-35.156,-146.484,-81.543,-21.973
1789910724.764747,-51.270,-151.367,-80.078,-22.949
1789910724.768379,-32.227,-144.531,-86.914,-26.367
1789910724.772012,3.418,-132.324,-68.359,-20.508
1789910724.775645,-19.531,-134.766,-68.848,-27.832
1789910724.779278,-52.246,-150.879,-92.773,-33.203
1789910724.782911,-32.227,-144.531,-79.102,-22.949
1789910724.786544,-5.371,-143.066,-79.102,-29.785
1789910724.792531,-25.391,-163.086,-96.191,-38.086
1789910724.796174,-56.641,-163.086,-81.543,-36.621
1789910724.799816,-58.594,-154.785,-83.008,-43.457
1789910724.803459,-19.531,-146.484,-94.238,-39.551
1789910724.807102,-6.348,-142.090,-81.543,-29.297
1789910724.810745,-45.898,-152.832,-78.613,-23.926
1789910724.814387,-48.828,-148.926,-74.707,-4.883
1789910724.818030,-9.766,-124.023,-64.453,-12.695
1789910724.821673,-16.602,-144.531,-81.055,-48.340
1789910724.825316,-53.711,-168.457,-99.121,-56.641
1789910724.828958,-53.711,-154.297,-93.262,-48.828
1789910724.832601,-37.598,-151.855,-87.891,-55.664
1789910724.838495,-2.930,-149.414,-82.031,-47.363
1789910724.842147,-10.254,-152.832,-78.613,-32.227
1789910724.845799,-50.293,-160.156,-85.449,-42.969
1789910724.849450,-29.297,-145.996,-75.684,-29.785
1789910724.853102,-0.488,-134.766,-79.102,-27.344
1789910724.856754,-20.996,-137.695,-93.262,-49.316
1789910724.860405,-48.340,-134.766,-92.285,-34.668
1789910724.864057,-50.781,-138.672,-82.031,-32.227
1789910724.867709,-27.832,-139.160,-78.613,-36.621
1789910724.871360,-17.090,-128.906,-85.938,-35.645
1789910724.875012,-33.691,-122.559,-75.684,-25.879
1789910724.878664,-52.734,-134.277,-73.242,-30.273
1789910724.885733,0.000,-138.672,-82.520,-61.035
1789910724.889398,0.000,-114.258,-75.195,-59.082
1789910724.893062,0.000,-109.863,-61.035,-40.039
1789910724.896727,0.000,-118.164,-69.336,-44.922
1789910724.900391,0.000,-116.699,-72.266,-53.223
1789910724.904056,0.000,-100.586,-58.594,-47.852
1789910724.907721,0.000,-92.285,-49.805,-47.852
1789910724.911385,0.000,-115.723,-48.340,-67.871
1789910724.915050,0.000,-112.793,-46.875,-77.148
1789910724.918715,0.000,-100.586,-38.574,-77.148
1789910724.922379,0.000,-103.027,-27.832,-88.867
1789910724.926044,0.000,-86.426,-14.160,-82.031
1789910724.932727,-111.328,-78.613,-11.719,-96.191
1789910724.936403,-113.770,-81.055,-7.812,-129.883
1789910724.940078,-117.188,-84.961,0.488,-153.320
1789910724.943754,-135.254,-64.941,15.625,-140.137
1789910724.947429,-161.133,-47.363,30.762,-139.160
1789910724.951105,-158.691,-62.988,22.949,-168.457
1789910724.954781,-135.254,-78.125,17.578,-172.852
1789910724.958456,-154.297,-85.938,16.113,-164.551
1789910724.962132,-163.574,-86.426,12.695,-148.926
1789910724.965807,-139.160,-86.914,12.695,-139.160
1789910724.969483,-85.938,-74.707,18.066,-117.676
1789910724.973158,-77.148,-88.379,6.836,-107.910
1789910724.979617,-107.910,-101.562,-15.625,-108.398
1789910724.983303,-104.004,-108.887,-30.273,-114.746
1789910724.986988,-71.777,-121.094,-36.621,-114.258
1789910724.990673,-52.734,-112.305,-36.621,-91.797
1789910724.994358,-78.125,-112.793,-44.922,-78.613
1789910724.998044,-76.660,-114.746,-53.711,-64.453
1789910725.001729,-42.969,-113.770,-59.082,-56.152
1789910725.005414,-16.602,-134.766,-70.312,-58.594
1789910725.009099,-38.574,-144.531,-68.359,-45.898
1789910725.012784,-44.922,-113.281,-53.711,-24.902
1789910725.016469,-29.785,-112.793,-76.660,-37.598
1789910725.020155,-22.461,-130.859,-95.215,-44.434
1789910725.026358,-20.996,-122.070,-97.656,-30.762
1789910725.030051,-41.992,-119.629,-98.145,-37.109
1789910725.033745,-38.574,-125.000,-98.633,-44.922
1789910725.037438,-3.906,-134.277,-94.727,-30.273
1789910725.041132,-1.465,-133.789,-85.449,-20.508
1789910725.044826,-24.902,-123.047,-84.961,-12.207
1789910725.048519,-24.414,-118.164,-92.285,-9.766
1789910725.052213,4.395,-118.652,-107.422,-17.578
1789910725.055907,7.812,-118.652,-105.957,-25.391
1789910725.059600,-19.531,-114.258,-108.398,-21.484
1789910725.063294,-20.508,-106.934,-107.422,-17.090
1789910725.066987,2.441,-108.887,-104.492,-18.066
1789910725.073048,10.742,-125.488,-102.051,-15.625
1789910725.076749,-5.371,-134.766,-97.168,0.977
1789910725.080451,-11.230,-128.418,-91.797,6.348
1789910725.084152,-9.766,-133.789,-99.121,-13.672
1789910725.087853,12.695,-132.324,-104.492,-23.438
1789910725.091554,6.348,-119.141,-94.727,-13.184
1789910725.095255,-10.742,-123.535,-94.727,-3.418
1789910725.098957,-2.930,-119.629,-96.680,-1.953
1789910725.102658,13.184,-109.375,-92.285,-15.625
1789910725.106359,20.020,-103.027,-83.496,-9.766
1789910725.110060,-12.207,-100.586,-91.309,-1.465
1789910725.113761,-18.066,-96.680,-94.238,-3.418
1789910725.119588,16.602,-77.637,-71.289,-8.301
1789910725.123296,22.461,-71.777,-74.707,-17.578
1789910725.127004,-11.230,-92.773,-84.961,-4.395
1789910725.130712,-18.555,-103.027,-83.008,3.906
1789910725.134419,-4.395,-106.445,-84.961,-9.766
1789910725.138127,9.277,-106.445,-91.797,-22.461
1789910725.141835,-1.953,-98.145,-87.891,-14.160
1789910725.145542,-7.812,-76.172,-77.637,2.930
1789910725.149250,-11.230,-66.895,-82.031,-3.418
1789910725.152958,4.883,-79.102,-87.891,-26.367
1789910725.156666,0.977,-78.613,-86.426,-18.066
1789910725.160373,-40.527,-66.895,-79.590,-9.277
1789910725.166013,-23.438,-48.340,-73.242,-14.648
1789910725.169726,28.320,-45.410,-77.148,-5.859
1789910725.173440,19.531,-41.504,-82.031,-12.207
1789910725.177153,-16.113,-35.645,-78.125,-13.184
1789910725.180867,-22.949,-34.180,-59.082,-4.883
1789910725.184580,-13.672,-35.156,-64.941,-1.465
1789910725.188294,0.000,-42.480,-76.660,-2.441
1789910725.192007,-25.391,-30.762,-72.754,-13.672
1789910725.195721,-37.598,-8.301,-71.289,-17.578
1789910725.199434,-12.207,-10.742,-74.707,-15.137
1789910725.203148,15.625,-11.719,-67.383,-12.695
1789910725.206861,7.324,-14.160,-59.570,-12.207
1789910725.212395,-11.719,-17.090,-64.453,1.465
1789910725.216114,-8.789,-18.555,-68.359,1.953
1789910725.219832,18.066,-27.344,-62.500,-11.719
1789910725.223551,22.949,-21.484,-57.617,5.859
1789910725.227270,-16.602,-35.156,-66.895,-2.441
1789910725.230989,-19.531,-62.988,-76.172,-19.043
1789910725.234707,-7.812,-71.777,-75.195,-30.273
1789910725.238426,-3.906,-73.242,-68.848,-23.438
1789910725.242145,-20.508,-76.172,-60.547,-17.578
1789910725.245863,-37.109,-71.289,-66.895,-25.391
1789910725.249582,-25.879,-61.523,-80.078,-30.273
1789910725.253301,-21.484,-63.965,-80.566,-37.598
1789910725.259711,-38.574,-72.266,-80.078,-39.062
1789910725.263437,-37.109,-54.199,-67.383,-21.973
1789910725.267163,-23.926,-46.875,-62.500,-19.531
1789910725.270890,-16.113,-77.148,-83.496,-53.711
1789910725.274616,-9.766,-68.848,-84.473,-43.457
1789910725.278342,-36.621,-51.758,-74.219,-35.645
1789910725.282068,-32.227,-48.340,-64.941,-45.898
1789910725.285794,6.348,-43.945,-65.918,-44.434
1789910725.289521,5.371,-57.129,-70.312,-29.297
1789910725.293247,-28.320,-65.430,-72.754,-16.113
1789910725.296973,-25.879,-45.898,-55.176,-23.438
1789910725.300699,3.906,-46.387,-58.594,-35.156
1789910725.306867,9.766,-60.059,-69.824,-47.852
1789910725.310600,-23.438,-64.941,-67.871,-38.086
1789910725.314332,-57.617,-75.195,-75.195,-47.852
1789910725.318065,-36.621,-67.383,-67.383,-57.617
1789910725.321798,-0.977,-56.152,-61.035,-44.434
1789910725.325531,-25.391,-59.082,-57.129,-45.898
1789910725.329263,-59.570,-62.988,-66.406,-49.805
1789910725.332996,-41.016,-69.336,-80.566,-47.363
1789910725.336729,-3.418,-75.195,-78.613,-31.738
1789910725.340462,-28.320,-75.195,-73.730,-33.691
1789910725.344195,-53.711,-61.523,-55.664,-34.180
1789910725.347927,-43.945,-57.617,-58.105,-25.879
1789910725.353916,-28.320,-66.895,-69.336,-41.504
1789910725.357654,-19.043,-57.129,-65.918,-41.504
1789910725.361393,-46.387,-51.270,-67.871,-34.668
1789910725.365132,-49.316,-52.734,-62.988,-31.738
1789910725.368870,-30.762,-61.523,-61.035,-38.574
1789910725.372609,-17.090,-61.035,-63.477,-47.852
1789910725.376348,-32.715,-64.453,-67.383,-56.152
1789910725.380086,-37.109,-57.617,-54.199,-33.203
1789910725.383825,-16.602,-41.504,-41.504,-3.906
1789910725.387563,-8.301,-58.105,-50.293,-35.156
1789910725.391302,-27.344,-72.754,-51.270,-50.781
1789910725.395041,-41.992,-69.824,-50.293,-24.414
1789910725.400843,-30.762,-63.965,-47.363,-31.738
1789910725.404587,-14.160,-61.523,-36.621,-41.504
1789910725.408330,-17.090,-70.801,-42.969,-30.273
1789910725.412074,-42.480,-81.543,-59.570,-46.875
1789910725.415818,-35.156,-70.312,-44.922,-46.387
1789910725.419562,-5.371,-65.430,-49.316,-36.621
1789910725.423306,0.977,-66.895,-59.082,-39.551
1789910725.427050,-19.531,-60.547,-40.527,-17.578
1789910725.430794,-54.688,-78.613,-49.316,-33.691
1789910725.434538,-42.480,-77.637,-57.617,-56.641
1789910725.438281,-8.789,-63.965,-58.105,-60.547
1789910725.442025,-26.367,-60.547,-49.316,-59.082
1789910725.447722,-51.270,-57.129,-39.062,-54.199
1789910725.451471,-35.156,-54.688,-41.016,-54.199
1789910725.455220,-1.465,-62.500,-49.805,-42.480
1789910725.458968,-19.531,-55.664,-44.434,-38.574
1789910725.462717,-55.176,-52.246,-42.480,-43.945
1789910725.466465,-48.340,-45.898,-43.945,-35.156
1789910725.470214,3.418,-30.273,-31.738,-16.602
1789910725.473963,1.953,-37.598,-31.250,-23.438
1789910725.477711,-47.363,-48.828,-34.180,-43.457
1789910725.481460,-44.434,-43.457,-36.621,-47.363
1789910725.485209,-12.695,-34.668,-26.367,-35.645
1789910725.488957,-10.254,-33.691,-25.391,-41.016
1789910725.494531,-37.109,-45.410,-40.039,-39.551
1789910725.498284,-37.598,-58.594,-40.039,-19.043
1789910725.502038,-25.391,-69.336,-35.156,-28.809
1789910725.505790,-8.301,-61.035,-35.645,-32.715
1789910725.509543,-9.277,-56.152,-26.367,-20.020
1789910725.513296,-25.391,-71.289,-22.949,-25.879
1789910725.517049,-33.203,-85.449,-42.480,-24.414
1789910725.520802,-23.438,-87.402,-38.574,-28.320
1789910725.524555,-34.668,-83.984,-32.715,-50.781
1789910725.528308,-49.805,-84.473,-43.457,-46.387
1789910725.532061,-33.691,-78.125,-44.922,-38.086
1789910725.535814,-0.977,-74.707,-37.109,-45.898
1789910725.541251,0.977,-78.125,-36.133,-43.457
1789910725.545008,-26.367,-78.613,-36.133,-38.086
1789910725.548764,-35.645,-78.125,-33.691,-38.086
1789910725.552521,-17.578,-75.195,-32.715,-35.645
1789910725.556278,-3.418,-67.871,-28.809,-30.273
1789910725.560035,-30.273,-73.730,-42.480,-32.715
1789910725.563792,-54.199,-88.379,-53.711,-34.180
1789910725.567549,-40.527,-85.938,-46.875,-36.621
1789910725.571306,-14.160,-71.289,-43.457,-45.898
1789910725.575063,-33.203,-75.195,-46.387,-43.945
1789910725.578820,-60.059,-84.473,-43.945,-29.297
1789910725.582577,-43.945,-83.984,-44.922,-29.785
1789910725.588672,-29.785,-83.984,-44.434,-34.668
1789910725.592434,-31.738,-83.984,-34.668,-30.273
1789910725.596196,-33.203,-80.566,-32.715,-25.391
1789910725.599958,-29.785,-75.684,-32.227,-25.391
1789910725.603720,-27.344,-93.262,-52.246,-32.715
1789910725.607482,-17.578,-101.562,-54.199,-29.785
1789910725.611245,-31.250,-90.332,-28.320,-21.973
1789910725.615007,-53.711,-93.750,-37.109,-36.621
1789910725.618769,-41.016,-93.262,-51.758,-55.664
1789910725.622531,-20.020,-82.520,-47.852,-37.598
1789910725.626293,-32.227,-78.613,-41.504,-31.250
1789910725.630055,-67.383,-81.055,-52.734,-56.641
1789910725.636128,-53.711,-81.055,-54.199,-54.199
1789910725.639895,-1.953,-62.500,-37.598,-23.438
1789910725.643663,-37.109,-61.523,-50.293,-36.621
1789910725.647430,-73.730,-74.219,-58.105,-64.453
1789910725.651197,-55.176,-73.242,-49.316,-50.293
1789910725.654964,-33.691,-68.848,-44.922,-39.062
1789910725.658732,-18.555,-62.988,-39.551,-41.992
1789910725.662499,-49.805,-72.754,-44.434,-49.805
1789910725.666266,-67.383,-75.684,-47.852,-51.270
1789910725.670033,-37.109,-69.824,-44.922,-47.852
1789910725.673800,-27.832,-59.570,-41.992,-51.758
1789910725.677568,-43.457,-55.176,-36.621,-57.617
1789910725.683382,-48.828,-62.012,-39.551,-51.270
1789910725.687154,-27.344,-53.711,-32.715,-32.227
1789910725.690925,-27.832,-55.664,-44.434,-47.852
1789910725.694697,-54.688,-69.824,-64.453,-64.453
1789910725.698468,-61.035,-63.965,-54.688,-62.500
1789910725.702240,-41.992,-53.223,-46.875,-45.410
1789910725.706012,-23.438,-40.039,-50.781,-41.992
1789910725.709783,-23.926,-24.414,-51.758,-48.340
1789910725.713555,-34.668,-19.531,-55.176,-43.457
1789910725.717326,-34.668,-33.691,-47.363,-34.668
1789910725.721098,14.160,-36.133,-30.273,1.953
1789910725.724869,7.812,-17.090,-44.922,-7.324
1789910725.730716,-46.387,3.418,-44.922,-47.363
1789910725.734492,-54.199,-6.348,-39.551,-61.035
1789910725.738268,-53.711,-37.109,-71.289,-66.406
1789910725.742044,-38.574,-34.668,-85.938,-59.570
1789910725.745820,-53.711,-17.578,-83.008,-77.637
1789910725.749596,-59.570,2.930,-73.242,-80.078
1789910725.753371,-34.180,13.672,-76.660,-65.430
1789910725.757147,-26.855,7.812,-88.379,-79.102
1789910725.760923,-40.527,-0.977,-78.613,-81.055
1789910725.764699,-49.805,4.395,-74.219,-69.824
1789910725.768475,-44.922,18.066,-92.285,-63.477
1789910725.772251,-26.367,20.996,-91.797,-59.570
1789910725.777617,-26.855,9.766,-75.684,-62.500
1789910725.781396,-48.828,6.348,-73.242,-77.148
1789910725.785175,-38.086,18.066,-68.848,-66.895
1789910725.788954,-20.996,-3.418,-72.266,-61.523
1789910725.792734,-28.320,-25.879,-85.449,-71.289
1789910725.796513,-51.758,-19.043,-79.102,-65.430
1789910725.800292,-57.617,-24.902,-69.824,-57.129
1789910725.804071,-30.273,-22.949,-66.406,-43.457
1789910725.807850,-17.578,-9.277,-64.453,-41.504
1789910725.811630,-25.391,-5.859,-55.664,-53.711
1789910725.815409,-35.645,5.859,-57.617,-50.293
1789910725.819188,-14.160,36.621,-50.293,-32.227
1789910725.824466,0.000,23.438,-37.598,-35.156
1789910725.828249,-34.668,-7.324,-48.828,-60.059
1789910725.832031,-70.801,1.465,-53.223,-78.125
1789910725.835813,-67.871,9.766,-36.133,-80.566
1789910725.839595,-52.246,19.531,-17.090,-86.914
1789910725.843377,-82.520,14.648,-21.484,-100.098
1789910725.847159,-117.188,19.531,-17.090,-104.980
1789910725.850941,-128.418,30.762,-6.836,-116.699
1789910725.854723,-120.605,38.086,7.324,-150.391
1789910725.858505,-121.094,53.711,9.766,-165.039
1789910725.862288,-140.625,68.359,6.348,-161.621
1789910725.866070,-151.367,81.543,24.414,-171.387
1789910725.871190,-155.273,55.664,0.000,-182.129
1789910725.874974,-146.484,53.223,0.000,-180.176
1789910725.878759,-176.270,59.570,0.000,-188.965
1789910725.882544,-219.238,30.273,0.000,-205.078
1789910725.886329,-209.473,29.785,0.000,-204.102
1789910725.890113,-179.199,36.621,0.000,-207.031
1789910725.893898,-164.062,28.320,0.000,-183.105
1789910725.897683,-161.621,18.555,0.000,-152.344
1789910725.901468,-157.227,7.812,0.000,-161.133
1789910725.905252,-126.953,-1.953,0.000,-149.414
1789910725.909037,-97.168,-18.555,0.000,-107.910
1789910725.912822,-117.676,-39.551,0.000,-114.746
1789910725.917857,-115.234,-38.086,-24.414,-125.977
1789910725.921645,-64.453,-28.809,-23.926,-99.121
1789910725.925432,-60.547,-51.758,-42.480,-97.656
1789910725.929219,-88.379,-75.195,-50.293,-93.262
1789910725.933006,-84.473,-69.824,-54.688,-86.426
1789910725.936793,-61.035,-68.359,-65.430,-80.566
1789910725.940580,-38.086,-74.707,-62.012,-70.801
1789910725.944367,-53.711,-84.961,-60.059,-65.430
1789910725.948154,-69.824,-87.402,-65.918,-70.312
1789910725.951941,-46.875,-88.867,-83.496,-62.012
1789910725.955728,-14.648,-87.891,-86.426,-35.156
1789910725.959516,-20.996,-96.191,-88.379,-49.805
1789910725.964585,-47.363,-122.070,-103.027,-58.105
1789910725.968374,-43.945,-121.094,-100.098,-43.945
1789910725.972164,-8.301,-100.098,-96.191,-37.109
1789910725.975953,10.742,-90.332,-89.844,-25.879
1789910725.979743,-15.137,-91.797,-78.613,-5.371
1789910725.983532,-36.621,-94.238,-83.008,-8.301
1789910725.987322,-17.578,-95.703,-91.309,-26.367
1789910725.991111,28.809,-90.332,-81.055,-26.367
1789910725.994901,12.695,-89.844,-83.008,-20.508
1789910725.998690,-31.738,-90.332,-87.402,-9.277
1789910726.002480,-16.113,-80.078,-80.566,-10.742
1789910726.006269,58.105,-81.543,-71.777,-4.883
1789910726.011876,0.000,-94.238,-80.078,-2.930
1789910726.015669,0.000,-95.703,-88.379,2.441
1789910726.019462,0.000,-113.281,-90.332,-5.371
1789910726.023255,0.000,-131.836,-100.098,-37.109
1789910726.027047,0.000,-132.324,-98.145,-22.461
1789910726.030840,0.000,-121.094,-95.215,3.906
1789910726.034633,0.000,-104.980,-86.426,10.742
1789910726.038426,0.000,-98.145,-81.543,-10.742
1789910726.042218,0.000,-94.238,-92.285,-30.273
1789910726.046011,0.000,-89.355,-90.820,2.441
1789910726.049804,0.000,-91.797,-81.543,5.371
1789910726.053597,0.000,-89.844,-81.055,-24.902
1789910726.059062,69.824,-81.543,-73.730,-30.273
1789910726.062858,31.738,-88.867,-80.566,-22.949
1789910726.066653,-55.664,-99.121,-91.309,-16.113
1789910726.070449,-48.828,-108.887,-90.332,-18.066
1789910726.074245,25.879,-95.703,-93.750,-36.621
1789910726.078041,41.992,-68.359,-90.332,-19.043
1789910726.081836,-20.996,-66.895,-82.031,-5.859
1789910726.085632,-41.016,-59.570,-83.496,-24.902
1789910726.089428,22.949,-49.805,-90.820,-20.996
1789910726.093223,61.035,-47.363,-70.312,5.859
1789910726.097019,6.348,-47.852,-72.266,2.930
1789910726.100815,-54.199,-65.430,-97.656,-19.531
1789910726.106097,-10.742,-70.801,-89.844,-23.438
1789910726.109895,26.367,-67.871,-83.984,-28.809
1789910726.113694,-7.812,-73.242,-94.238,-17.578
1789910726.117492,-29.297,-72.754,-83.008,6.348
1789910726.121290,0.488,-67.871,-76.660,-10.742
1789910726.125089,18.555,-76.660,-90.332,-32.227
1789910726.128887,-12.695,-85.938,-84.961,-24.902
1789910726.132685,-35.156,-82.031,-86.914,-16.602
1789910726.136484,-17.578,-83.984,-85.449,-11.230
1789910726.140282,18.555,-93.262,-77.637,-23.438
1789910726.144080,23.926,-86.914,-77.148,-24.902
1789910726.147878,-21.484,-86.914,-80.566,-15.137
1789910726.153263,0.000,-94.238,-77.148,-16.113
1789910726.157064,0.000,-91.797,-69.824,-23.926
1789910726.160865,0.000,-90.820,-72.266,-19.043
1789910726.164666,0.000,-101.562,-68.848,-12.695
1789910726.168467,0.000,-111.816,-80.566,-17.090
1789910726.172268,0.000,-98.633,-77.148,-15.625
1789910726.176069,0.000,-88.379,-63.477,-13.184
1789910726.179870,0.000,-99.121,-84.473,-15.137
1789910726.183671,0.000,-96.191,-70.312,-3.418
1789910726.187472,0.000,-92.285,-54.688,-25.879
1789910726.191273,0.000,-77.148,-54.688,-28.320
1789910726.195074,0.000,-62.012,-56.152,-6.348
1789910726.200118,-36.133,-67.871,-51.270,-12.695
1789910726.203921,-33.203,-71.289,-50.781,-20.508
1789910726.207724,-0.488,-66.895,-61.035,-18.555
1789910726.211527,8.301,-47.852,-38.574,-1.465
1789910726.215330,-20.996,-38.574,-37.109,7.324
1789910726.219133,-47.363,-58.594,-71.777,-20.020
1789910726.222936,-8.789,-60.059,-65.918,-39.551
1789910726.226739,16.602,-56.152,-54.199,-21.484
1789910726.230542,-24.414,-61.035,-57.617,-21.484
1789910726.234345,-51.758,-66.895,-57.129,-24.902
1789910726.238148,-20.508,-71.777,-62.500,-30.273
1789910726.241951,14.160,-62.500,-67.871,-41.992
1789910726.246938,6.836,-35.156,-58.105,-14.648
1789910726.250743,-48.340,-41.504,-59.082,-16.113
1789910726.254548,-44.922,-41.992,-54.688,-16.113
1789910726.258353,18.066,-42.969,-58.594,-26.855
1789910726.262158,24.414,-56.152,-65.430,-28.809
1789910726.265963,-41.016,-51.270,-60.547,-12.695
1789910726.269768,-78.613,-55.664,-69.336,-20.996
1789910726.273573,-13.184,-63.965,-65.430,-25.879
1789910726.277378,28.320,-62.988,-57.129,-30.273
1789910726.281183,-20.020,-60.547,-49.316,-14.160
1789910726.284988,-72.754,-62.988,-60.547,-15.625
1789910726.288793,-28.320,-69.336,-61.523,-35.156
1789910726.293751,21.973,-78.125,-57.129,-45.410
1789910726.297558,-3.418,-74.219,-45.410,-13.184
1789910726.301365,-54.199,-65.918,-39.062,7.324
1789910726.305172,-52.734,-73.242,-59.570,-37.109
1789910726.308979,19.043,-73.730,-63.965,-45.898
1789910726.312785,9.277,-76.172,-68.848,-16.602
1789910726.316592,-60.547,-73.242,-68.848,-3.418
1789910726.320399,-66.895,-61.035,-63.965,-28.320
1789910726.324206,2.930,-55.664,-62.500,-45.410
1789910726.328013,34.668,-49.316,-57.617,-24.414
1789910726.331820,-22.461,-43.457,-53.711,-20.020
1789910726.335626,-61.523,-41.016,-57.129,-29.297
1789910726.340358,5.859,-39.062,-55.176,-43.945
1789910726.344166,53.711,-35.645,-54.688,-37.109
1789910726.347974,-38.574,-54.199,-74.707,-31.738
1789910726.351783,-101.562,-67.871,-78.613,-37.598
1789910726.355591,-52.734,-74.219,-81.543,-59.082
1789910726.359399,16.602,-67.383,-79.102,-45.410
1789910726.363208,-14.648,-54.688,-65.918,-23.926
1789910726.367016,-84.961,-52.246,-66.406,-40.527
1789910726.370824,-63.965,-55.664,-69.824,-57.129
1789910726.374633,9.766,-61.523,-72.754,-54.688
1789910726.378441,-0.977,-56.641,-78.613,-31.738
1789910726.382249,-60.059,-45.410,-59.570,-21.973
1789910726.387579,-68.848,-46.387,-56.152,-35.156
1789910726.391390,-16.602,-59.570,-87.891,-59.570
1789910726.395200,18.555,-52.246,-75.195,-40.527
1789910726.399011,-38.086,-38.086,-61.523,-32.227
1789910726.402822,-68.359,-37.598,-61.523,-42.969
1789910726.406632,-9.766,-48.340,-58.594,-46.387
1789910726.410443,27.344,-41.992,-60.059,-52.246
1789910726.414253,-33.203,-41.504,-55.664,-29.785
1789910726.418064,-85.938,-53.223,-58.105,-22.949
1789910726.421875,-47.852,-60.059,-59.082,-49.805
1789910726.425685,8.301,-69.336,-61.035,-65.430
1789910726.429496,-13.184,-63.965,-51.270,-39.551
1789910726.434725,-83.496,-60.547,-51.270,-24.902
1789910726.438538,-88.867,-71.289,-74.707,-66.406
1789910726.442351,-8.789,-66.406,-70.801,-67.871
1789910726.446164,2.930,-59.570,-62.012,-25.879
1789910726.449976,-81.543,-65.918,-64.453,-24.414
1789910726.453789,-98.145,-77.637,-60.547,-54.688
1789910726.457602,-17.578,-75.195,-61.523,-65.430
1789910726.461415,6.348,-65.918,-55.664,-45.898
1789910726.465228,-63.477,-65.430,-59.082,-28.809
1789910726.469040,-90.332,-47.363,-60.547,-34.180
1789910726.472853,-18.066,-42.969,-58.105,-50.781
1789910726.476666,18.555,-66.895,-71.289,-55.176
1789910726.481746,0.000,-64.941,-73.730,-36.133
1789910726.485561,0.000,-52.246,-63.965,-29.785
1789910726.489376,0.000,-43.457,-57.617,-50.781
1789910726.493191,0.000,-33.203,-67.871,-57.129
1789910726.497005,0.000,-34.668,-69.824,-37.109
1789910726.500820,0.000,-47.363,-58.594,-30.273
1789910726.504635,0.000,-62.500,-60.059,-39.062
1789910726.508449,0.000,-79.102,-67.383,-50.781
1789910726.512264,0.000,-69.336,-51.758,-21.973
1789910726.516079,0.000,-54.688,-41.992,-7.812
1789910726.519893,0.000,-77.148,-69.824,-52.734
1789910726.523708,0.000,-89.844,-77.637,-61.523
1789910726.528690,9.277,-79.102,-69.824,-41.016
1789910726.532506,-38.574,-72.266,-60.059,-17.578
1789910726.536323,-89.355,-82.520,-61.523,-25.879
1789910726.540139,-29.785,-93.262,-74.707,-49.805
1789910726.543956,29.785,-86.914,-71.777,-47.852
1789910726.547772,-14.160,-69.336,-52.246,-23.438
1789910726.551589,-81.055,-66.895,-53.711,-9.766
1789910726.555405,-65.918,-83.008,-71.289,-31.250
1789910726.559221,20.508,-75.684,-70.312,-41.016
1789910726.563038,6.836,-70.801,-58.105,-27.344
1789910726.566854,-69.336,-80.078,-50.781,-15.625
1789910726.570670,-78.125,-72.266,-47.852,-28.809
1789910726.575586,-3.906,-77.148,-40.039,-40.039
1789910726.579404,23.438,-84.961,-39.062,-39.062
1789910726.583222,-63.965,-78.613,-54.688,-26.367
1789910726.587040,-83.984,-64.453,-47.363,-21.484
1789910726.590858,-5.371,-61.523,-40.039,-43.457
1789910726.594676,32.715,-73.242,-57.129,-56.152
1789910726.598494,-33.691,-72.266,-53.711,-27.344
1789910726.602312,-99.121,-76.660,-64.453,-23.438
1789910726.606130,-49.805,-70.801,-65.430,-49.316
1789910726.609948,32.715,-47.363,-55.664,-51.270
1789910726.613766,-5.859,-50.781,-61.523,-39.551
1789910726.617584,-72.266,-58.105,-61.035,-33.203
1789910726.622418,-49.316,-49.805,-62.012,-48.340
1789910726.626237,11.230,-51.758,-69.336,-57.617
1789910726.630057,30.273,-60.059,-82.520,-22.949
1789910726.633876,-23.438,-71.289,-67.871,12.695
1789910726.637696,-91.309,-74.219,-35.645,-43.945
1789910726.641515,-53.711,-82.520,-47.852,-117.188
1789910726.645334,-15.137,-93.262,-48.828,-89.355
1789910726.649154,-94.727,-93.750,-41.016,-59.570
1789910726.652973,-143.555,-99.609,-39.551,-73.242
1789910726.656793,-87.402,-93.750,-26.367,-88.867
1789910726.660612,-23.438,-94.238,-19.531,-90.820
1789910726.664432,-92.773,-112.305,-28.320,-77.148
1789910726.669107,-170.898,-113.281,-34.668,-83.496
1789910726.672928,-104.004,-107.910,-32.715,-87.402
1789910726.676748,-13.672,-112.305,-23.926,-81.055
1789910726.680569,-36.133,-106.934,-22.949,-78.613
1789910726.684390,-111.816,-103.027,-38.574,-76.172
1789910726.688210,-102.539,-104.004,-42.969,-72.266
1789910726.692031,-23.438,-88.379,-46.387,-73.730
1789910726.695851,-24.902,-91.309,-54.688,-71.289
1789910726.699672,-100.098,-92.773,-49.316,-43.945
1789910726.703492,-125.488,-83.496,-61.523,-54.199
1789910726.707313,-40.039,-78.125,-65.918,-84.961
1789910726.711134,7.324,-64.941,-49.805,-77.148
1789910726.715722,-54.199,-53.223,-34.180,-51.758
1789910726.719543,-113.770,-54.688,-40.527,-54.688
1789910726.723365,-64.453,-54.199,-58.594,-73.730
1789910726.727187,21.973,-46.875,-44.434,-54.199
1789910726.731009,-32.715,-62.500,-49.316,-51.270
1789910726.734830,-109.863,-71.289,-58.594,-54.688
1789910726.738652,-80.078,-67.871,-58.105,-62.012
1789910726.742473,2.441,-69.824,-66.895,-76.172
1789910726.746295,-2.441,-58.594,-53.711,-43.457
1789910726.750117,-89.844,-56.641,-43.457,-28.809
1789910726.753938,-100.098,-75.195,-58.105,-62.012
1789910726.757760,-16.113,-57.129,-50.781,-61.035
1789910726.762874,9.277,-44.922,-47.363,-45.410
1789910726.766697,-63.477,-62.012,-62.500,-39.551
1789910726.770520,-98.633,-58.105,-55.176,-34.668
1789910726.774344,-31.738,-42.480,-53.223,-45.898
1789910726.778167,13.184,-31.738,-52.734,-47.852
1789910726.781991,-49.316,-38.574,-51.270,-39.062
1789910726.785814,-101.074,-36.133,-56.641,-37.598
1789910726.789638,-62.500,-31.738,-51.758,-58.105
1789910726.793461,12.207,-31.250,-43.945,-60.059
1789910726.797284,-19.531,-31.250,-47.363,-42.969
1789910726.801108,-97.168,-34.180,-41.504,-41.504
1789910726.804931,-97.168,-39.062,-46.387,-81.543
1789910726.810065,-17.578,-29.297,-37.109,-88.867
1789910726.813890,-10.742,-23.438,-21.484,-64.941
1789910726.817715,-112.793,-43.457,-37.109,-73.730
1789910726.821540,-124.023,-36.133,-44.434,-87.891
1789910726.825365,-41.504,-23.438,-39.062,-91.797
1789910726.829190,-32.715,-21.973,-29.297,-87.402
1789910726.833015,-109.375,-11.719,-16.602,-72.754
1789910726.836841,-143.066,-3.418,-9.277,-86.426
1789910726.840666,-70.801,-3.906,-23.438,-101.074
1789910726.844491,-13.184,-3.906,-26.367,-85.449
1789910726.848316,-83.984,-7.324,-25.879,-85.938
1789910726.852141,-143.555,6.836,-26.855,-89.844
1789910726.857087,-85.938,24.414,-22.461,-93.262
1789910726.860914,-21.484,5.371,-27.832,-103.516
1789910726.864740,-46.387,7.324,-27.832,-82.520
1789910726.868567,-98.145,19.531,-16.602,-51.758
1789910726.872393,-96.680,-3.906,-28.809,-80.078
1789910726.876220,-22.461,-4.395,-34.180,-104.004
1789910726.880047,-16.113,-9.766,-24.902,-89.355
1789910726.883873,-95.703,-19.531,-32.227,-74.219
1789910726.887700,-123.047,-12.207,-30.273,-81.055
1789910726.891526,-54.199,-21.973,-17.090,-106.934
1789910726.895353,-24.414,-17.578,-8.301,-103.516
1789910726.899179,-101.074,-17.090,-13.672,-84.473
1789910726.903996,-150.879,-32.227,-9.277,-88.867
1789910726.907824,-126.465,-22.461,2.441,-130.859
1789910726.911652,-74.707,0.000,11.230,-140.625
1789910726.915480,-97.168,18.555,17.578,-112.305
1789910726.919308,-172.852,19.531,9.277,-112.305
1789910726.923136,-176.758,9.766,15.137,-156.250
1789910726.926963,-99.121,16.113,34.180,-164.551
1789910726.930791,-86.426,17.578,27.832,-118.652
1789910726.934619,-159.180,12.695,9.766,-104.004
1789910726.938447,-174.805,6.348,1.953,-132.812
1789910726.942275,-65.918,1.465,5.859,-122.559
1789910726.946103,-41.992,-16.602,-5.371,-114.258
1789910726.950847,-146.484,-37.109,-19.531,-128.418
1789910726.954676,-186.035,-43.457,-24.414,-124.512
1789910726.958505,-82.520,-54.688,-33.203,-114.746
1789910726.962334,5.371,-50.781,-37.598,-78.613
1789910726.966163,-68.848,-50.293,-52.246,-66.406
1789910726.969992,-131.836,-55.176,-65.918,-68.359
1789910726.973821,-55.664,-55.664,-72.266,-65.918
1789910726.977650,17.090,-64.453,-78.613,-59.082
1789910726.981479,-34.668,-62.500,-81.543,-42.969
1789910726.985308,-100.098,-60.059,-82.031,-32.227
1789910726.989137,-55.664,-64.941,-84.473,-41.992
1789910726.992966,32.227,-59.082,-84.961,-51.270
1789910726.997685,24.902,-58.594,-80.078,-32.227
1789910727.001515,-55.664,-67.871,-83.984,-22.461
1789910727.005345,-68.359,-69.336,-88.867,-21.484
1789910727.009175,12.207,-69.336,-88.379,-38.574
1789910727.013005,65.918,-54.199,-76.172,-10.742
1789910727.016835,-10.742,-53.711,-87.402,11.719
1789910727.020665,-83.008,-83.008,-120.605,-16.113
1789910727.024496,-13.672,-92.285,-116.699,-36.133
1789910727.028326,45.410,-89.844,-108.887,-29.785
1789910727.032156,-3.418,-92.285,-103.516,1.953
1789910727.035986,-59.570,-83.496,-93.262,8.789
1789910727.039816,-16.113,-85.449,-96.680,-21.484
1789910727.044464,68.359,-92.285,-99.121,-29.297
1789910727.048295,40.039,-91.797,-95.215,5.371
1789910727.052126,-49.316,-95.703,-96.191,12.695
1789910727.055958,-56.152,-99.609,-101.074,-11.230
1789910727.059788,33.691,-99.121,-105.469,-22.461
1789910727.063620,57.617,-100.586,-108.887,-1.465
1789910727.067451,-26.367,-101.562,-109.375,9.277
1789910727.071282,-57.129,-101.074,-109.375,-16.602
1789910727.075113,24.902,-102.051,-106.934,-30.273
1789910727.078944,61.523,-104.492,-102.539,0.000
1789910727.082775,-4.883,-98.633,-102.051,19.043
1789910727.086606,-48.828,-89.355,-103.027,4.395
1789910727.091134,1.953,-97.168,-113.281,-19.531
1789910727.094966,57.129,-89.844,-114.258,-10.254
1789910727.098798,6.836,-79.102,-103.027,2.930
1789910727.102630,-58.594,-88.379,-109.375,-3.906
1789910727.106462,-18.066,-95.703,-111.816,-21.973
1789910727.110294,57.617,-93.262,-105.469,-18.066
1789910727.114126,21.973,-77.637,-93.262,0.000
1789910727.117958,-51.758,-59.570,-83.496,14.648
1789910727.121790,-55.664,-74.707,-104.980,-11.230
1789910727.125622,30.762,-83.496,-111.816,-25.879
1789910727.129454,45.410,-80.078,-105.957,-13.672
1789910727.133286,-46.875,-68.359,-108.398,-7.324
1789910727.138293,-70.312,-62.012,-103.516,-0.977
1789910727.142127,13.672,-60.547,-91.797,-17.090
1789910727.145960,67.871,-52.246,-85.449,-7.324
1789910727.149793,-10.742,-54.199,-87.402,10.742
1789910727.153626,-82.520,-56.152,-88.867,-1.465
1789910727.157460,-13.672,-49.316,-93.262,-15.625
1789910727.161293,54.199,-52.246,-97.656,-23.926
1789910727.165127,-4.395,-59.570,-97.656,-6.348
1789910727.168960,-72.754,-63.965,-95.215,1.465
1789910727.172793,-45.410,-71.777,-89.844,-16.113
1789910727.176627,34.668,-72.266,-86.914,-35.156
1789910727.180460,19.043,-72.266,-97.656,-17.578
1789910727.185385,-71.777,-69.824,-91.309,1.465
1789910727.189220,-69.336,-73.242,-79.590,-18.555
1789910727.193054,22.461,-73.730,-80.566,-29.297
1789910727.196889,42.480,-64.941,-83.008,-11.719
1789910727.200724,-38.086,-58.594,-83.008,4.883
1789910727.204558,-73.730,-55.176,-83.496,-11.719
1789910727.208393,2.930,-59.570,-83.496,-28.809
1789910727.212228,55.664,-63.965,-81.543,-23.438
1789910727.216062,-14.160,-57.129,-77.148,0.977
1789910727.219897,-93.750,-56.152,-78.125,-5.859
1789910727.223732,-34.668,-66.895,-88.379,-37.109
1789910727.227566,45.410,-64.941,-82.520,-44.434
1789910727.232387,-13.184,-54.688,-80.078,-33.691
1789910727.236223,-95.703,-67.871,-86.426,-28.809
1789910727.240058,-59.570,-64.453,-77.148,-26.855
1789910727.243894,36.133,-58.105,-71.289,-30.273
1789910727.247730,25.391,-77.637,-84.961,-26.367
1789910727.251566,-64.941,-76.660,-87.402,-22.461
1789910727.255402,-93.262,-74.707,-76.660,-48.340
1789910727.259237,-8.301,-73.730,-77.148,-54.688
1789910727.263073,26.855,-64.453,-81.543,-34.180
1789910727.266909,-60.547,-62.500,-84.961,-27.832
1789910727.270745,-124.023,-66.406,-90.820,-44.434
1789910727.274580,-39.551,-75.195,-90.332,-74.219
1789910727.279368,33.691,-75.195,-80.566,-60.059
1789910727.283205,-26.855,-70.312,-76.660,-33.691
1789910727.287042,-93.262,-74.707,-83.496,-37.109
1789910727.290879,-67.383,-75.684,-86.426,-57.129
1789910727.294716,17.090,-71.289,-90.332,-55.664
1789910727.298553,5.859,-65.918,-93.750,-37.109
1789910727.302389,-84.961,-59.570,-88.379,-37.109
1789910727.306226,-66.895,-51.758,-79.590,-33.691
1789910727.310063,24.414,-61.035,-87.402,-52.734
1789910727.313900,12.207,-66.895,-97.168,-64.941
1789910727.317737,-71.289,-62.988,-91.797,-46.875
1789910727.321574,-95.703,-66.406,-94.727,-62.012
1789910727.326238,-8.301,-64.453,-90.820,-76.172
1789910727.330076,34.180,-58.594,-80.566,-66.406
1789910727.333914,-48.828,-56.641,-83.984,-32.715
1789910727.337751,-109.863,-62.500,-91.309,-29.785
1789910727.341589,-50.293,-51.758,-89.844,-50.293
1789910727.345427,35.156,-41.992,-87.402,-47.852
1789910727.349265,-8.789,-39.551,-77.637,-19.531
1789910727.353103,-80.566,-27.832,-72.266,-8.789
1789910727.356941,-41.016,-29.297,-72.266,-36.621
1789910727.360778,45.898,-41.992,-66.895,-41.992
1789910727.364616,30.762,-50.781,-69.824,-10.742
1789910727.368454,-60.059,-50.293,-77.148,-0.488
1789910727.373046,-62.012,-33.691,-64.453,-21.973
1789910727.376885,16.602,-39.551,-76.172,-43.457
1789910727.380723,23.438,-52.734,-93.750,-39.551
1789910727.384562,-64.941,-46.875,-87.891,-29.785
1789910727.388401,-100.586,-46.387,-82.520,-29.297
1789910727.392240,-10.254,-47.363,-82.031,-47.852
1789910727.396078,42.969,-46.875,-84.473,-52.734
1789910727.399917,-37.598,-55.176,-82.520,-36.621
1789910727.403755,-106.934,-52.734,-77.637,-40.039
1789910727.407594,-41.016,-43.945,-73.242,-50.293
1789910727.411433,32.715,-47.852,-83.008,-65.430
1789910727.415271,-11.230,-54.688,-80.566,-46.875
1789910727.419804,-88.379,-56.152,-76.172,-39.551
1789910727.423643,-72.754,-55.176,-79.102,-55.664
1789910727.427483,17.578,-61.523,-72.266,-59.082
1789910727.431322,27.344,-62.012,-74.219,-47.852
1789910727.435161,-52.734,-65.430,-85.938,-33.691
1789910727.439001,-78.613,-74.707,-89.355,-38.574
1789910727.442840,0.000,-63.477,-78.613,-39.551
1789910727.446680,33.203,-44.434,-63.477,-32.227
1789910727.450519,-42.480,-48.828,-72.266,-30.762
1789910727.454358,-81.055,-61.523,-78.125,-40.527
1789910727.458198,-9.277,-65.918,-70.312,-58.105
1789910727.462037,36.133,-53.223,-74.707,-48.828
1789910727.466535,-23.438,-55.176,-78.125,-36.621
1789910727.470375,-78.125,-63.477,-74.219,-29.785
1789910727.474215,-43.945,-59.570,-74.219,-34.180
1789910727.478055,9.766,-62.012,-72.754,-54.199
1789910727.481895,5.859,-40.527,-55.176,-34.180
1789910727.485736,-49.316,-20.508,-58.105,-15.625
1789910727.489576,-71.289,-43.457,-80.078,-55.176
1789910727.493416,-21.973,-55.664,-78.125,-64.941
1789910727.497256,-12.207,-47.852,-69.336,-41.992
1789910727.501096,-54.199,-42.480,-65.430,-20.020
1789910727.504936,-76.660,-45.410,-57.617,-21.484
1789910727.508776,-25.879,-44.434,-61.035,-42.480
1789910727.513741,-1.953,-42.480,-64.941,-33.203
1789910727.517582,-48.340,-47.852,-66.406,-23.926
1789910727.521424,-62.012,-58.105,-70.801,-21.973
1789910727.525265,-34.180,-56.641,-71.777,-39.062
1789910727.529106,-3.418,-42.969,-69.824,-48.340
1789910727.532948,-17.578,-44.434,-68.848,-31.250
1789910727.536789,-46.387,-43.457,-74.219,-30.273
1789910727.540630,-32.227,-40.039,-85.938,-44.922
1789910727.544472,-2.441,-44.922,-92.285,-46.875
1789910727.548313,-14.160,-41.016,-91.797,-39.551
1789910727.552154,-45.898,-35.645,-83.008,-41.504
1789910727.555995,-25.879,-32.715,-74.219,-40.527
1789910727.560794,-1.465,-38.086,-74.707,-41.504
1789910727.564636,-19.043,-39.551,-76.660,-45.410
1789910727.568478,-23.926,-34.180,-78.613,-35.156
1789910727.572320,-21.484,-32.715,-75.195,-28.320
1789910727.576163,-14.648,-33.203,-65.430,-22.461
1789910727.580005,-17.090,-40.527,-68.359,-23.926
1789910727.583848,-42.480,-42.969,-72.754,-40.527
1789910727.587690,-51.270,-33.691,-65.430,-42.969
1789910727.591532,-23.926,-14.648,-60.059,-20.996
1789910727.595375,-14.160,-16.602,-66.895,-28.809
1789910727.599217,-43.457,-25.391,-78.125,-47.852
1789910727.603059,-44.434,-23.438,-72.754,-36.133
1789910727.607847,-28.320,-25.879,-72.754,-43.457
1789910727.611691,-30.273,-30.273,-74.707,-51.270
1789910727.615534,-34.668,-32.227,-72.266,-41.504
1789910727.619377,-31.738,-35.645,-65.430,-39.551
1789910727.623220,-24.414,-31.250,-57.617,-22.461
1789910727.627064,-8.301,-22.949,-57.617,-11.230
1789910727.630907,-9.766,-32.715,-62.500,-31.250
1789910727.634750,-31.250,-41.016,-65.430,-40.527
1789910727.638593,-28.320,-29.297,-57.617,-24.902
1789910727.642437,-6.836,-28.809,-47.363,-21.484
1789910727.646280,-12.695,-31.250,-56.152,-43.945
1789910727.650123,-32.227,-38.574,-72.266,-32.227
1789910727.654787,-34.180,-42.969,-66.406,-34.180
1789910727.658632,-14.160,-41.992,-56.641,-34.668
1789910727.662476,-2.930,-31.250,-47.363,-17.578
1789910727.666320,-5.371,-17.090,-37.109,-8.789
1789910727.670164,-15.137,-31.250,-44.922,-19.043
1789910727.674008,-14.160,-38.574,-50.293,-33.203
1789910727.677852,-8.301,-46.387,-53.223,-37.598
1789910727.681696,-16.113,-47.852,-58.594,-37.598
1789910727.685540,-24.414,-40.039,-57.617,-22.949
1789910727.689385,-20.508,-45.898,-51.758,-26.367
1789910727.693229,-10.742,-43.457,-49.805,-30.273
1789910727.697073,-4.883,-30.273,-40.527,-28.320
1789910727.701671,-4.883,-20.020,-34.180,-14.648
1789910727.705516,-21.484,-30.762,-43.945,-17.090
1789910727.709361,-13.184,-48.340,-57.129,-14.648
1789910727.713206,-4.883,-37.109,-59.082,-23.438
1789910727.717051,-18.066,-14.160,-49.316,-38.086
1789910727.720896,-10.254,4.395,-33.691,-6.836
1789910727.724741,0.488,7.812,-24.414,-13.672
1789910727.728586,-5.371,7.812,-21.484,-33.203
1789910727.732431,-48.828,-8.789,-31.250,-58.594
1789910727.736275,-55.176,-15.137,-26.855,-60.059
1789910727.740120,-50.293,-21.484,-20.996,-54.199
1789910727.743965,-50.781,-21.484,-13.184,-67.383
1789910727.748467,-66.895,-5.371,-0.977,-76.172
1789910727.752313,-90.332,-6.348,12.695,-89.355
1789910727.756158,-88.867,-14.160,11.230,-93.750
1789910727.760004,-81.543,14.160,11.230,-94.727
1789910727.763849,-133.301,28.320,10.254,-155.762
1789910727.767695,-168.457,19.531,18.555,-181.152
1789910727.771541,-136.230,38.574,26.855,-144.043
1789910727.775386,-160.156,46.875,25.391,-171.387
1789910727.779232,-202.637,51.270,35.645,-226.074
1789910727.783077,-215.820,52.246,38.574,-243.164
1789910727.786923,-210.938,56.152,45.410,-229.980
1789910727.790768,-198.242,66.406,39.551,-230.957
1789910727.795691,-206.543,56.152,18.066,-248.047
1789910727.799538,-205.566,46.387,8.301,-235.840
1789910727.803384,-196.777,62.012,12.695,-219.727
1789910727.807231,-178.711,66.895,7.324,-220.215
1789910727.811078,-163.086,54.199,-24.414,-221.191
1789910727.814924,-170.410,34.668,-46.387,-208.984
1789910727.818771,-162.109,17.090,-46.387,-184.082
1789910727.822618,-158.691,4.395,-54.199,-189.941
1789910727.826464,-154.785,-14.160,-67.871,-187.500
1789910727.830311,-129.395,-24.902,-73.730,-148.926
1789910727.834157,-136.230,-32.715,-84.961,-143.555
1789910727.838004,-125.000,-40.527,-94.238,-138.184
1789910727.842384,-73.242,-51.270,-76.660,-102.051
1789910727.846231,-84.961,-67.383,-72.266,-112.305
1789910727.850078,-120.117,-81.543,-94.238,-145.020
1789910727.853925,-99.121,-102.051,-105.957,-120.117
1789910727.857773,-57.617,-114.258,-104.980,-84.961
1789910727.861620,-53.223,-117.188,-107.422,-90.332
1789910727.865467,-77.148,-124.023,-114.258,-90.820
1789910727.869314,-66.406,-129.883,-111.816,-78.613
1789910727.873161,-64.453,-140.625,-115.723,-77.637
1789910727.877008,-62.988,-149.902,-122.070,-64.453
1789910727.880856,-38.574,-154.297,-109.375,-55.664
1789910727.884703,-15.625,-150.391,-106.934,-42.969
1789910727.889483,-19.531,-164.551,-130.859,-45.898
1789910727.893331,-14.160,-170.410,-124.512,-32.227
1789910727.897179,-11.230,-157.227,-111.328,-19.043
1789910727.901027,-7.324,-158.691,-111.816,-16.113
1789910727.904876,17.578,-162.598,-121.094,-0.977
1789910727.908724,14.648,-169.434,-132.324,0.977
1789910727.912572,0.000,-178.223,-128.418,-14.160
1789910727.916420,-5.371,-174.316,-122.070,-22.949
1789910727.920268,14.160,-177.246,-119.141,-13.672
1789910727.924116,32.227,-182.129,-117.676,5.859
1789910727.927964,12.695,-181.152,-122.559,3.418
1789910727.931812,14.648,-184.082,-122.070,-6.836
1789910727.936538,29.297,-181.152,-117.676,12.695
1789910727.940387,39.062,-177.734,-108.887,29.785
1789910727.944236,29.785,-193.359,-112.793,19.531
1789910727.948085,24.414,-204.590,-123.047,12.207
1789910727.951934,38.086,-206.543,-113.770,14.160
1789910727.955783,41.504,-208.008,-104.004,17.090
1789910727.959632,38.086,-205.078,-100.586,30.762
1789910727.963481,21.973,-210.938,-98.145,19.531
1789910727.967330,29.297,-208.984,-101.562,15.625
1789910727.971179,46.875,-201.660,-107.422,23.926
1789910727.975028,37.109,-198.730,-107.910,14.648
1789910727.978876,22.949,-210.938,-117.676,17.578
1789910727.983566,31.250,-220.215,-115.234,14.160
1789910727.987415,37.598,-227.051,-114.258,22.461
1789910727.991265,40.527,-229.980,-112.305,35.645
1789910727.995115,40.039,-222.656,-107.422,28.320
1789910727.998965,20.996,-226.074,-122.070,11.230
1789910728.002814,33.691,-226.562,-111.816,13.672
1789910728.006664,49.805,-232.910,-100.098,30.762
1789910728.010514,35.645,-245.117,-98.633,44.922
1789910728.014363,51.758,-250.977,-82.031,53.223
1789910728.018213,58.594,-250.000,-74.707,51.758
1789910728.022063,54.688,-249.512,-83.984,51.758
1789910728.025912,63.477,-246.094,-88.867,52.734
1789910728.030486,51.758,-239.746,-87.402,50.293
1789910728.034336,66.895,-238.281,-82.520,45.410
1789910728.038186,73.730,-248.047,-85.938,49.316
1789910728.042037,70.312,-233.398,-64.941,70.801
1789910728.045887,58.594,-229.980,-54.688,66.406
1789910728.049738,41.016,-246.582,-78.613,34.180
1789910728.053588,51.758,-240.234,-77.148,30.762
1789910728.057438,68.848,-234.863,-70.801,59.570
1789910728.061289,65.918,-222.656,-63.965,72.754
1789910728.065139,56.152,-206.055,-62.500,62.012
1789910728.068990,78.125,-190.918,-71.777,83.496
1789910728.072840,93.750,-185.059,-69.824,97.656
1789910728.077349,60.547,-197.754,-54.199,66.895
1789910728.081200,50.293,-195.312,-37.109,66.895
1789910728.085051,84.473,-183.105,-31.250,83.496
1789910728.088902,98.633,-182.617,-37.109,88.379
1789910728.092753,90.332,-178.711,-36.621,89.844
1789910728.096604,76.172,-187.012,-37.598,74.707
1789910728.100455,89.355,-188.477,-40.527,83.496
1789910728.104306,102.539,-182.129,-38.574,94.727
1789910728.108157,96.680,-181.152,-40.039,86.914
1789910728.112008,88.867,-186.035,-47.852,76.660
1789910728.115859,84.473,-183.594,-51.758,77.148
1789910728.119710,91.309,-174.316,-53.711,74.219
1789910728.124161,0.000,-155.762,-46.875,66.895
1789910728.128012,0.000,-147.461,-42.480,75.195
1789910728.131864,0.000,-147.461,-42.480,73.730
1789910728.135715,0.000,-135.742,-29.297,75.195
1789910728.139567,0.000,-156.250,-42.480,66.895
1789910728.143419,0.000,-178.223,-55.664,55.176
1789910728.147270,0.000,-170.898,-44.434,63.477
1789910728.151122,0.000,-164.062,-47.852,65.430
1789910728.154973,0.000,-162.598,-46.875,55.664
1789910728.158825,0.000,-167.480,-46.387,48.828
1789910728.162676,0.000,-175.293,-47.852,44.434
1789910728.166528,0.000,-179.199,-48.340,57.617
1789910728.170906,63.965,-175.781,-47.363,58.105
1789910728.174758,67.871,-187.500,-51.270,43.457
1789910728.178610,65.430,-189.941,-45.898,50.293
1789910728.182462,50.781,-188.477,-38.086,45.410
1789910728.186314,62.988,-193.848,-52.734,44.434
1789910728.190166,59.570,-194.824,-66.406,50.781
1789910728.194018,49.805,-187.012,-56.641,51.270
1789910728.197870,59.082,-174.805,-35.645,49.805
1789910728.201722,49.316,-187.012,-41.016,26.855
1789910728.205574,50.293,-192.871,-47.363,30.273
1789910728.209426,46.875,-188.965,-55.176,39.062
1789910728.213278,22.461,-192.871,-45.898,29.297
1789910728.217618,43.457,-171.387,-17.090,45.898
1789910728.221471,70.801,-165.039,-35.156,46.875
1789910728.225323,49.316,-190.430,-59.570,25.879
1789910728.229176,22.461,-188.965,-49.316,12.207
1789910728.233028,32.227,-174.316,-47.852,12.207
1789910728.236881,47.852,-165.039,-52.734,31.738
1789910728.240733,39.062,-159.668,-52.246,32.227
1789910728.244585,21.973,-158.691,-41.504,17.578
1789910728.248438,10.742,-155.273,-28.809,17.578
1789910728.252290,36.621,-144.043,-27.344,25.391
1789910728.256143,52.734,-147.949,-31.738,23.438
1789910728.259995,43.457,-138.184,-24.902,23.926
1789910728.264679,16.602,-131.836,-27.344,5.371
1789910728.268533,-4.883,-142.090,-30.273,0.000
1789910728.272386,1.953,-126.465,-21.484,-9.766
1789910728.276239,-0.488,-126.465,-28.809,-16.602
1789910728.280092,-20.508,-118.164,-21.484,-19.043
1789910728.283945,-12.695,-103.027,-10.742,-26.855
1789910728.287798,-1.465,-101.074,-16.602,-26.855
1789910728.291652,-34.180,-98.145,-23.438,-51.758
1789910728.295505,-78.125,-107.910,-21.484,-68.359
1789910728.299358,-90.332,-109.375,-19.531,-73.242
1789910728.303211,-70.801,-88.379,1.953,-81.055
1789910728.307064,-68.848,-87.402,-4.883,-88.867
1789910728.311703,-86.914,-97.168,-33.203,-93.750
1789910728.315557,-104.004,-85.938,-14.160,-105.469
1789910728.319411,-116.699,-93.750,8.789,-128.418
1789910728.323265,-99.121,-104.492,2.930,-116.699
1789910728.327119,-77.637,-102.539,-10.254,-96.680
1789910728.330973,-72.754,-102.539,-9.766,-87.891
1789910728.334827,-89.355,-117.188,-19.043,-94.238
1789910728.338681,-84.473,-134.277,-27.832,-96.680
1789910728.342535,-38.574,-136.230,-20.020,-60.059
1789910728.346389,-29.297,-137.695,-22.949,-43.457
1789910728.350242,-40.039,-149.902,-43.457,-54.688
1789910728.354096,-32.227,-151.855,-53.711,-32.227
1789910728.358660,-11.719,-155.273,-57.617,-29.785
1789910728.362515,14.160,-156.250,-62.012,-21.973
1789910728.366369,10.254,-152.344,-63.477,-8.789
1789910728.370224,14.648,-150.879,-64.941,0.488
1789910728.374079,22.461,-157.227,-79.102,16.113
1789910728.377933,32.227,-160.156,-88.379,18.066
1789910728.381788,18.066,-159.180,-94.727,-2.441
1789910728.385642,24.902,-147.949,-95.215,10.742
1789910728.389497,47.852,-145.508,-102.539,34.668
1789910728.393351,34.180,-154.785,-116.699,31.250
1789910728.397206,33.203,-152.832,-109.863,21.973
1789910728.401060,34.180,-166.504,-117.188,17.578
1789910728.405566,50.293,-159.668,-117.188,32.715
1789910728.409421,54.688,-153.809,-113.770,35.645
1789910728.413276,49.316,-160.645,-121.582,37.109
1789910728.417131,41.016,-147.461,-128.418,32.715
1789910728.420986,36.621,-119.629,-120.605,41.016
1789910728.424841,53.223,-111.328,-119.629,49.805
1789910728.428696,83.984,-102.051,-106.445,67.871
1789910728.432552,71.289,-107.910,-103.027,64.941
1789910728.436407,57.129,-118.164,-114.746,49.316
1789910728.440262,62.500,-106.934,-103.027,52.734
1789910728.444117,61.523,-123.535,-104.004,52.734
1789910728.447972,68.359,-127.441,-96.191,45.898
1789910728.452592,0.000,-117.188,0.000,45.898
1789910728.456448,0.000,-114.746,0.000,53.711
1789910728.460304,0.000,-115.723,0.000,59.570
1789910728.464159,0.000,-117.188,0.000,46.875
1789910728.468015,0.000,-110.840,0.000,26.367
1789910728.471871,0.000,-112.305,0.000,41.992
1789910728.475727,0.000,-112.793,0.000,44.434
1789910728.479582,0.000,-113.770,0.000,38.574
1789910728.483438,0.000,-123.535,0.000,15.625
1789910728.487294,0.000,-120.605,0.000,15.625
1789910728.491149,0.000,-109.375,0.000,21.484
1789910728.495005,0.000,-102.539,0.000,-6.836
1789910728.499455,-9.277,-89.355,-10.254,-21.973
1789910728.503311,-24.902,-58.105,-6.836,-24.414
1789910728.507167,-30.762,-29.297,8.301,-36.621
1789910728.511024,-34.180,-12.207,5.371,-56.641
1789910728.514880,-39.062,16.113,-18.066,-44.922
1789910728.518736,-51.270,38.086,0.488,-41.992
1789910728.522592,-94.238,34.180,27.344,-107.910
1789910728.526448,-114.746,26.367,9.277,-124.512
1789910728.530305,-92.773,40.039,10.254,-94.238
1789910728.534161,-93.750,46.875,28.809,-89.355
1789910728.538017,-129.883,29.785,19.531,-106.445
1789910728.541873,-153.809,20.996,20.508,-127.441
1789910728.546221,-146.484,20.508,31.738,-128.906
1789910728.550077,-135.742,23.438,30.762,-119.141
1789910728.553934,-132.324,21.973,23.438,-117.676
1789910728.557790,-113.770,22.461,15.137,-97.168
1789910728.561647,-99.121,11.230,7.812,-88.867
1789910728.565504,-89.355,-7.324,1.953,-87.891
1789910728.569360,-89.844,-31.738,0.488,-66.895
1789910728.573217,-78.613,-34.668,9.277,-39.551
1789910728.577074,-70.312,-41.504,0.000,-38.086
1789910728.580930,-71.289,-66.406,-38.574,-43.945
1789910728.584787,-57.129,-70.312,-47.852,-34.668
1789910728.588643,-52.246,-82.031,-54.199,-23.438
1789910728.592955,-32.715,-82.520,-53.711,-13.672
1789910728.596812,-20.508,-80.566,-55.664,-4.883
1789910728.600669,14.648,-86.426,-66.406,31.250
1789910728.604526,23.926,-81.543,-78.125,35.645
1789910728.608383,4.395,-76.172,-81.543,14.160
1789910728.612240,15.625,-78.613,-78.125,37.109
1789910728.616097,22.461,-79.590,-80.566,52.246
1789910728.619954,27.832,-68.359,-65.918,40.527
1789910728.623811,22.461,-68.359,-74.219,41.504
1789910728.627668,20.508,-69.824,-91.797,41.992
1789910728.631525,20.996,-70.801,-92.285,35.645
1789910728.635382,19.531,-79.590,-89.844,36.621
1789910728.640029,33.203,-77.637,-89.844,45.410
1789910728.643887,41.992,-79.590,-83.008,39.062
1789910728.647744,30.762,-92.285,-69.336,41.992
1789910728.651602,32.715,-90.820,-84.473,48.340
1789910728.655460,47.363,-85.938,-97.168,44.434
1789910728.659317,64.941,-86.426,-95.215,52.734
1789910728.663175,57.617,-94.727,-96.680,62.012
1789910728.667033,50.781,-85.938,-91.797,62.500
1789910728.670890,52.734,-78.125,-86.426,48.828
1789910728.674748,44.434,-90.820,-85.938,47.363
1789910728.678606,47.363,-76.660,-78.613,53.711
1789910728.682463,61.035,-56.641,-71.777,59.570
1789910728.687046,50.781,-70.312,-89.355,53.223
1789910728.690904,53.223,-83.984,-95.703,46.875
1789910728.694762,62.988,-75.684,-84.473,37.598
1789910728.698620,51.270,-77.637,-89.844,46.387
1789910728.702479,41.992,-79.590,-95.215,45.898
1789910728.706337,44.434,-81.055,-94.727,28.320
1789910728.710195,61.035,-76.172,-90.332,33.691
1789910728.714053,70.312,-63.477,-83.984,41.504
1789910728.717911,57.617,-60.547,-86.426,54.199
1789910728.721770,49.805,-68.359,-87.402,54.688
1789910728.725628,48.828,-71.777,-85.938,41.504
1789910728.729486,45.898,-75.684,-83.008,34.668
1789910728.734000,35.645,-80.078,-76.172,26.855
1789910728.737859,18.066,-71.289,-85.449,12.207
1789910728.741717,32.227,-53.223,-77.148,14.160
1789910728.745576,43.945,-56.152,-71.289,11.719
1789910728.749435,13.184,-72.754,-86.426,-4.883
1789910728.753294,17.578,-58.594,-82.031,4.883
1789910728.757152,21.484,-48.340,-76.172,11.230
1789910728.761011,22.461,-45.898,-76.660,12.207
1789910728.764870,32.715,-34.668,-65.918,7.812
1789910728.768729,25.879,-33.203,-58.105,13.184
1789910728.772587,14.648,-33.691,-58.594,11.230
1789910728.776446,22.461,-29.785,-60.059,23.926
1789910728.780913,11.230,-38.086,-60.059,14.648
1789910728.784772,-1.953,-44.434,-51.270,-6.836
1789910728.788631,9.766,-36.133,-54.199,8.301
1789910728.792490,8.301,-25.879,-64.453,26.367
1789910728.796350,13.672,-12.695,-55.664,22.949
1789910728.800209,0.977,-19.043,-54.199,3.418
1789910728.804068,-15.137,-31.738,-78.613,-12.695
1789910728.807927,1.953,-24.414,-75.684,-3.906
1789910728.811787,-0.977,-32.715,-68.359,-11.230
1789910728.815646,-14.160,-35.645,-74.707,-27.344
1789910728.819505,-2.441,-27.344,-78.613,-18.555
1789910728.823364,0.000,-22.461,-81.055,-12.207
1789910728.827877,0.488,-26.367,-88.379,-17.090
1789910728.831737,-4.395,-12.207,-89.355,-26.367
1789910728.835597,-13.672,-0.977,-87.402,-26.855
1789910728.839457,-3.418,4.883,-77.148,-19.043
1789910728.843316,-4.883,19.043,-71.777,-13.184
1789910728.847176,-27.344,20.020,-83.496,-33.203
1789910728.851036,-18.555,27.344,-82.031,-37.598
1789910728.854896,-16.113,17.090,-64.453,-24.414
1789910728.858755,-25.879,12.207,-42.480,-43.945
1789910728.862615,-45.898,19.043,-42.969,-65.918
1789910728.866475,-91.797,5.859,-62.012,-98.145
1789910728.870335,-92.285,0.000,-49.316,-96.191
1789910728.874730,-119.629,8.301,-32.715,-96.680
1789910728.878590,-143.555,5.859,-25.391,-111.328
1789910728.882450,-132.324,-13.184,-21.484,-125.488
1789910728.886311,-126.465,-11.230,-20.020,-119.141
1789910728.890171,-121.582,-24.902,-24.414,-103.027
1789910728.894031,-108.887,-37.109,-33.203,-92.773
1789910728.897891,-91.309,-38.086,-36.621,-75.684
1789910728.901751,-106.445,-60.547,-60.059,-83.008
1789910728.905612,-103.516,-70.312,-86.914,-93.262
1789910728.909472,-82.520,-86.426,-89.844,-82.520
1789910728.913332,-66.406,-83.496,-74.707,-52.734
1789910728.917192,-57.617,-72.266,-75.195,-28.320
1789910728.921496,-48.828,-68.359,-80.566,-32.715
1789910728.925356,-32.227,-69.824,-92.285,-20.508
1789910728.929217,-42.969,-78.613,-113.281,-6.836
1789910728.933077,-45.410,-66.895,-114.258,-23.438
1789910728.936938,-16.113,-64.941,-112.793,-24.414
1789910728.940798,-22.461,-77.148,-131.348,-18.066
1789910728.944659,-32.227,-82.031,-141.113,-18.066
1789910728.948519,-30.273,-80.566,-141.113,-8.789
1789910728.952380,-27.832,-88.379,-140.137,-1.465
1789910728.956240,-17.578,-89.844,-142.578,-2.930
1789910728.960101,-10.742,-86.426,-142.578,-6.836
1789910728.963961,-30.762,-82.520,-146.484,-26.855
1789910728.968235,-24.414,-79.102,-156.250,-11.719
1789910728.972096,24.902,-71.777,-159.180,15.137
1789910728.975957,24.902,-67.383,-166.504,11.230
1789910728.979817,2.441,-79.590,-174.805,1.953
1789910728.983678,13.184,-69.336,-161.621,1.465
1789910728.987539,22.461,-63.477,-163.574,7.324
1789910728.991400,12.695,-74.707,-183.105,-8.301
1789910728.995261,13.184,-67.871,-173.340,-2.441
1789910728.999122,26.367,-61.523,-167.969,6.836
1789910729.002982,23.926,-60.059,-174.316,0.977
1789910729.006843,9.277,-54.688,-180.664,-2.930
1789910729.010704,4.883,-41.016,-181.641,-8.789
1789910729.015287,-5.859,-44.434,-173.340,2.930
1789910729.019149,-13.184,-56.152,-168.945,-14.648
1789910729.023010,-0.488,-51.758,-166.992,-30.762
1789910729.026871,-6.836,-54.199,-162.109,-10.742
1789910729.030733,-18.066,-59.082,-157.227,3.418
1789910729.034594,7.324,-31.250,-137.207,16.602
1789910729.038456,-1.953,-26.855,-128.906,4.883
1789910729.042317,-20.020,-39.062,-147.949,-25.391
1789910729.046178,-8.301,-35.156,-156.738,-27.344
1789910729.050040,-10.254,-35.645,-140.625,-17.578
1789910729.053901,-19.043,-25.879,-134.766,-22.949
1789910729.057763,-19.043,-25.391,-133.301,-34.668
1789910729.062296,-14.648,-18.066,-119.141,-38.086
1789910729.066158,-19.531,-3.906,-110.840,-30.762
1789910729.070020,-32.715,-7.812,-102.539,-38.086
1789910729.073882,-50.781,-4.883,-100.098,-54.688
1789910729.077744,-49.316,3.418,-104.004,-68.359
1789910729.081606,-60.547,9.766,-98.633,-78.125
1789910729.085468,-76.172,8.789,-83.984,-85.449
1789910729.089329,-54.199,14.160,-74.219,-68.359
1789910729.093191,-54.688,24.414,-79.102,-65.918
1789910729.097053,-115.234,20.508,-72.266,-114.746
1789910729.100915,-137.207,20.020,-56.641,-150.391
1789910729.104777,-117.676,-1.953,-56.152,-135.254
1789910729.109243,-116.699,0.977,-59.570,-126.953
1789910729.113106,-118.652,21.484,-35.645,-125.000
1789910729.116968,-124.512,2.441,-31.738,-135.254
1789910729.120830,-130.371,-15.137,-58.594,-148.438
1789910729.124693,-134.766,-5.859,-60.547,-148.438
1789910729.128555,-132.324,3.418,-56.641,-133.301
1789910729.132417,-117.676,3.906,-67.871,-121.094
1789910729.136280,-103.516,0.000,-92.285,-125.977
1789910729.140142,-95.215,-1.953,-93.262,-115.723
1789910729.144004,-91.309,-1.953,-83.008,-120.605
1789910729.147866,-77.637,-6.836,-88.379,-118.652
1789910729.151729,-76.660,-12.207,-96.680,-114.258
1789910729.156157,-75.195,-22.461,-96.680,-113.770
1789910729.160019,-59.570,-34.668,-104.492,-94.727
1789910729.163882,-45.898,-22.461,-115.723,-83.496
1789910729.167745,-39.062,1.465,-122.559,-82.520
1789910729.171608,-33.691,0.488,-125.488,-71.289
1789910729.175470,-28.809,11.230,-114.258,-52.734
1789910729.179333,-30.762,9.277,-129.883,-60.547
1789910729.183196,-30.762,-13.672,-145.020,-58.594
1789910729.187059,-27.832,-6.836,-129.883,-46.387
1789910729.190921,-18.066,0.488,-129.395,-52.734
1789910729.194784,-1.465,-4.883,-130.371,-42.480
1789910729.198647,-17.578,-15.625,-125.488,-37.109
1789910729.203026,0.000,-7.324,-124.023,-38.574
1789910729.206889,0.000,14.160,-125.000,-34.180
1789910729.210752,0.000,24.414,-125.000,-26.855
1789910729.214615,0.000,32.715,-128.418,-12.207
1789910729.218478,0.000,38.574,-133.301,-21.484
1789910729.222342,0.000,44.922,-122.559,-11.230
1789910729.226205,0.000,46.387,-123.047,-2.930
1789910729.230068,0.000,49.316,-136.719,-9.277
1789910729.233931,0.000,48.340,-135.254,-20.996
1789910729.237794,0.000,61.523,-118.164,-6.836
1789910729.241657,0.000,51.270,-128.906,3.906
1789910729.245520,0.000,30.762,-151.367,-9.766
1789910729.249849,17.090,35.156,-144.531,-7.324
1789910729.253712,23.438,24.902,-141.113,-4.395
1789910729.257576,36.621,23.438,-138.672,-4.883
1789910729.261439,31.250,32.715,-131.348,-1.953
1789910729.265303,28.320,30.762,-132.324,5.371
1789910729.269166,34.180,28.320,-127.441,0.977
1789910729.273030,38.574,17.090,-123.047,15.625
1789910729.276893,37.109,14.160,-122.559,39.062
1789910729.280756,34.180,14.160,-118.652,21.484
1789910729.284620,37.109,7.812,-131.348,0.977
1789910729.288483,44.434,6.348,-132.324,20.508
1789910729.292347,40.527,15.625,-125.488,26.855
1789910729.296630,11.230,13.672,-133.301,12.695
1789910729.300494,-3.906,-9.766,-136.719,2.441
1789910729.304358,1.465,-9.766,-131.348,1.465
1789910729.308221,20.508,2.930,-130.859,6.348
1789910729.312085,15.625,-5.371,-137.695,0.977
1789910729.315949,-7.812,-11.719,-138.672,-13.184
1789910729.319813,7.324,-13.672,-132.812,-0.977
1789910729.323676,16.602,-23.438,-128.906,1.465
1789910729.327540,-1.953,-23.438,-118.652,-14.648
1789910729.331404,-9.766,-13.672,-122.070,-10.254
1789910729.335268,-5.371,-19.043,-127.930,2.441
1789910729.339131,13.184,-13.184,-125.000,-7.324
1789910729.343431,0.000,13.672,-126.465,-22.461
1789910729.347295,-25.879,2.930,-121.094,-18.066
1789910729.351159,-30.273,-21.484,-119.629,-23.926
1789910729.355023,-17.578,-16.113,-120.605,-25.391
1789910729.358887,-6.836,-5.859,-114.258,-28.809
1789910729.362751,-16.113,-11.719,-118.164,-19.043
1789910729.366615,-28.320,-9.277,-128.418,-34.180
1789910729.370479,-15.625,21.484,-107.910,-43.945
1789910729.374343,-18.555,11.719,-103.027,-32.715
1789910729.378207,-32.715,-1.953,-115.723,-31.250
1789910729.382071,-29.297,27.344,-96.680,-25.879
1789910729.385936,-46.387,27.344,-85.449,-40.039
1789910729.390485,-56.641,20.508,-91.309,-41.992
1789910729.394350,-69.336,26.855,-95.215,-61.035
1789910729.398214,-98.633,16.113,-88.379,-102.539
1789910729.402079,-93.262,29.297,-76.172,-111.816
1789910729.405943,-119.141,30.762,-70.312,-113.281
1789910729.409808,-149.414,7.324,-51.270,-117.676
1789910729.413673,-119.629,30.273,-37.598,-107.910
1789910729.417537,-137.695,65.918,-34.668,-157.227
1789910729.421402,-181.641,74.707,-28.809,-182.617
1789910729.425266,-173.340,57.129,-20.508,-161.133
1789910729.429131,-171.387,61.523,-18.555,-191.895
1789910729.432995,-184.082,81.543,-25.391,-211.426
1789910729.437541,-187.988,77.637,-21.973,-210.938
1789910729.441406,-191.406,85.938,-22.461,-202.148
1789910729.445271,-207.520,85.938,-42.480,-209.473
1789910729.449136,-196.777,80.078,-60.059,-217.285
1789910729.453001,-201.172,76.172,-69.824,-226.074
1789910729.456866,-206.543,63.477,-72.266,-222.656
1789910729.460731,-178.711,58.594,-71.777,-204.102
1789910729.464596,-167.480,68.848,-72.266,-197.754
1789910729.468461,-166.992,65.430,-81.055,-171.875
1789910729.472326,-162.109,50.293,-95.703,-176.758
1789910729.476191,-145.020,46.875,-101.074,-187.500
1789910729.480056,-120.117,41.016,-98.145,-145.020
1789910729.484504,0.000,38.086,-103.027,-134.766
1789910729.488370,0.000,37.598,-115.723,-142.578
1789910729.492235,0.000,12.695,-124.512,-124.023
1789910729.496101,0.000,-8.301,-125.000,-103.516
1789910729.499966,0.000,-20.996,-123.047,-113.770
1789910729.503832,0.000,-23.438,-126.465,-121.582
1789910729.507697,0.000,-30.762,-135.254,-94.727
1789910729.511563,0.000,-53.711,-149.414,-71.289
1789910729.515428,0.000,-57.617,-143.066,-58.105
1789910729.519293,0.000,-50.781,-136.230,-80.078
1789910729.523159,0.000,-54.688,-150.879,-69.824
1789910729.527024,0.000,-67.383,-161.133,-43.945
1789910729.531474,-17.578,-81.055,-162.109,-58.105
1789910729.535340,-7.812,-88.867,-152.832,-38.574
1789910729.539206,-8.301,-91.309,-143.555,-12.695
1789910729.543072,-5.859,-97.168,-144.531,-19.531
1789910729.546938,-6.836,-102.539,-159.180,-26.855
1789910729.550804,-3.906,-92.773,-161.133,-16.602
1789910729.554669,-0.977,-98.633,-157.227,-7.812
1789910729.558535,9.766,-111.816,-166.016,-4.395
1789910729.562401,13.672,-106.934,-155.762,7.812
1789910729.566267,13.184,-95.215,-140.625,0.000
1789910729.570133,26.367,-88.867,-144.531,-2.930
1789910729.573999,29.785,-87.891,-158.691,15.137
1789910729.578382,14.160,-83.008,-162.109,16.602
1789910729.582248,20.020,-84.961,-156.250,8.789
1789910729.586114,36.621,-91.309,-151.367,4.395
1789910729.589980,31.738,-99.609,-149.902,4.883
1789910729.593847,29.785,-111.816,-154.297,12.695
1789910729.597713,25.391,-114.746,-153.809,19.531
1789910729.601579,25.391,-111.328,-148.926,17.090
1789910729.605445,22.461,-120.117,-154.785,9.277
1789910729.609311,25.879,-122.070,-149.902,0.977
1789910729.613178,28.809,-135.254,-140.137,13.184
1789910729.617044,16.113,-147.461,-145.996,20.020
1789910729.620910,27.344,-141.113,-142.578,18.555
1789910729.625185,41.504,-136.719,-137.207,21.484
1789910729.629051,28.320,-134.766,-147.461,19.531
1789910729.632918,29.785,-130.371,-146.484,23.438
1789910729.636785,37.598,-136.719,-144.043,22.461
1789910729.640651,30.762,-140.625,-141.602,19.043
1789910729.644517,34.180,-131.836,-135.254,15.625
1789910729.648384,28.320,-119.629,-134.277,17.090
1789910729.652250,22.949,-102.051,-132.812,20.020
1789910729.656117,25.391,-102.051,-122.070,20.508
1789910729.659983,28.809,-102.051,-116.699,15.625
1789910729.663850,20.996,-105.957,-120.605,4.883
1789910729.667716,8.301,-117.188,-123.535,-1.953
1789910729.671969,14.160,-120.605,-125.000,-0.977
1789910729.675836,21.973,-124.023,-124.512,-5.859
1789910729.679703,15.137,-120.605,-116.211,0.488
1789910729.683569,-3.418,-127.930,-113.770,10.254
1789910729.687436,-11.719,-142.578,-125.977,-2.930
1789910729.691303,0.977,-135.742,-130.859,-11.230
1789910729.695169,1.465,-141.113,-125.488,0.488
1789910729.699036,-14.648,-141.602,-126.465,-4.395
1789910729.702903,-11.719,-127.441,-129.395,-14.648
1789910729.706770,5.859,-132.324,-140.625,-11.230
1789910729.710636,3.418,-139.160,-142.578,-20.996
1789910729.714503,-8.789,-145.020,-130.859,-16.602
1789910729.719036,0.000,-141.113,-129.883,-8.789
1789910729.722903,0.000,-133.789,-132.324,-10.254
1789910729.726771,0.000,-129.395,-127.930,-5.859
1789910729.730638,0.000,-132.324,-122.559,-8.789
1789910729.734505,0.000,-143.066,-127.441,-22.949
1789910729.738372,0.000,-145.020,-127.930,-30.762
1789910729.742239,0.000,-133.789,-113.770,-27.344
1789910729.746107,0.000,-117.676,-113.281,-16.113
1789910729.749974,0.000,-120.117,-121.582,-29.785
1789910729.753841,0.000,-136.230,-114.258,-24.414
1789910729.757708,0.000,-128.906,-118.652,-16.602
1789910729.761575,0.000,-125.000,-117.676,-20.020
1789910729.766060,-10.742,-127.441,-105.469,-14.160
1789910729.769928,-18.066,-129.395,-105.469,-36.133
1789910729.773795,-17.578,-132.324,-104.004,-23.438
1789910729.777663,-20.508,-128.418,-99.609,-14.160
1789910729.781530,-40.527,-134.766,-99.609,-34.180
1789910729.785398,-34.180,-133.789,-102.051,-32.715
1789910729.789265,-25.879,-130.371,-103.516,-31.250
1789910729.793133,-28.809,-128.906,-112.305,-36.621
1789910729.797001,-34.668,-118.164,-114.258,-41.504
1789910729.800868,-35.156,-116.699,-110.840,-33.691
1789910729.804736,-29.297,-120.117,-108.398,-34.668
1789910729.808603,-37.598,-118.652,-102.539,-46.875
1789910729.813063,-28.809,-124.023,-98.633,-42.480
1789910729.816931,-29.785,-123.047,-96.191,-39.551
1789910729.820799,-46.875,-117.188,-99.609,-49.316
1789910729.824667,-44.922,-119.141,-104.980,-55.664
1789910729.828535,-41.504,-112.793,-102.051,-49.805
1789910729.832403,-36.621,-109.375,-99.121,-52.246
1789910729.836271,-30.273,-104.492,-104.004,-57.129
1789910729.840139,-31.738,-94.727,-102.051,-42.480
1789910729.844007,-34.180,-85.449,-96.680,-30.273
1789910729.847875,-43.945,-86.426,-104.004,-34.180
1789910729.851743,-61.523,-101.562,-100.586,-52.246
1789910729.855611,-48.828,-90.820,-84.473,-47.363
1789910729.860000,-31.250,-64.453,-67.383,-41.016
1789910729.863868,-61.523,-81.543,-67.871,-53.711
1789910729.867736,-78.613,-96.680,-83.984,-70.312
1789910729.871605,-74.707,-88.867,-77.637,-81.055
1789910729.875473,-84.473,-83.496,-60.059,-81.543
1789910729.879341,-117.676,-80.078,-61.035,-97.168
1789910729.883209,-139.160,-66.406,-59.082,-120.117
1789910729.887078,-124.512,-55.664,-42.480,-111.328
1789910729.890946,-117.676,-45.410,-42.969,-103.516
1789910729.894814,-163.086,-29.297,-49.805,-162.598
1789910729.898683,-195.801,-38.086,-38.574,-204.590
1789910729.902551,-172.363,-35.156,-29.297,-173.340
1789910729.906953,0.000,-15.137,0.000,-166.992
1789910729.910822,0.000,2.441,0.000,-193.359
1789910729.914691,0.000,5.371,0.000,-224.121
1789910729.918559,0.000,-6.348,0.000,-233.398
1789910729.922428,0.000,1.465,0.000,-213.379
1789910729.926297,0.000,14.648,0.000,-199.219
1789910729.930165,0.000,17.578,0.000,-199.707
1789910729.934034,0.000,20.508,0.000,-207.520
1789910729.937902,0.000,24.414,0.000,-193.359
1789910729.941771,0.000,23.438,0.000,-183.105
1789910729.945640,0.000,6.348,0.000,-172.852
1789910729.949508,0.000,5.859,0.000,-169.434
1789910729.952982,-161.621,15.137,-88.867,-164.062
1789910729.956851,-174.316,18.555,-102.051,-140.625
1789910729.960719,-208.008,11.230,-119.629,-126.465
1789910729.964587,-221.680,-12.695,-142.090,-116.211
1789910729.968456,-202.148,-36.621,-152.832,-118.164
1789910729.972324,-192.383,-53.711,-143.066,-112.793
1789910729.976192,-190.430,-62.500,-147.949,-91.797
1789910729.980061,-188.965,-72.266,-166.992,-61.523
1789910729.983929,-183.105,-64.941,-170.898,-64.941
1789910729.987798,-184.082,-61.523,-168.945,-69.336
1789910729.991666,-173.828,-69.824,-165.039,-40.039
1789910729.995535,-150.879,-72.754,-162.109,-54.688
1789910729.999796,-16.602,-83.984,-163.574,-62.988
1789910730.003665,-12.207,-100.098,-160.156,-58.105
1789910730.007534,-2.441,-105.469,-150.879,-47.363
1789910730.011402,11.719,-112.305,-145.020,-26.367
1789910730.015271,8.789,-115.723,-143.555,-26.855
1789910730.019140,13.672,-118.164,-141.602,-22.461
1789910730.023008,19.043,-125.488,-136.230,-5.859
1789910730.026877,17.578,-128.418,-135.742,-4.883
1789910730.030746,13.184,-135.254,-131.348,-15.625
1789910730.034614,8.301,-138.184,-139.160,-22.949
1789910730.038483,1.953,-141.113,-141.113,-26.367
1789910730.042351,-4.883,-142.578,-139.648,-32.715
1789910730.046583,-2.930,-139.160,-143.555,-30.762
1789910730.050452,-8.789,-131.348,-143.555,-4.883
1789910730.054321,-2.441,-138.184,-143.555,-17.578
1789910730.058189,6.836,-141.602,-143.066,-38.086
1789910730.062058,-15.625,-136.230,-153.809,-31.738
1789910730.065927,-13.672,-139.648,-150.879,-33.691
1789910730.069796,-1.953,-138.672,-142.578,-27.344
1789910730.073665,-7.812,-135.254,-141.602,-35.156
1789910730.077534,5.859,-123.535,-134.766,-24.902
1789910730.081403,16.113,-115.234,-130.859,-1.953
1789910730.085272,2.441,-122.070,-127.441,-15.625
1789910730.089140,-2.930,-123.047,-130.371,-22.949
1789910730.093388,-7.324,-117.188,-137.207,-27.344
1789910730.097257,3.906,-113.281,-134.766,-26.367
1789910730.101126,17.090,-121.582,-127.441,-18.066
1789910730.104995,11.230,-125.488,-121.582,-27.832
1789910730.108864,13.184,-127.441,-122.559,-27.832
1789910730.112733,-0.977,-132.324,-125.977,-17.090
1789910730.116603,-18.555,-129.883,-123.535,-12.207
1789910730.120472,-18.066,-121.582,-125.000,-18.555
1789910730.124341,-8.301,-121.094,-120.605,-19.531
1789910730.128210,-5.859,-124.023,-109.863,3.418
1789910730.132079,-21.484,-134.277,-108.887,-3.906
1789910730.135948,-22.461,-142.090,-115.234,-20.996
1789910730.140491,-12.207,-144.043,-114.258,-13.672
1789910730.144361,-25.879,-141.602,-109.863,-24.414
1789910730.148230,-38.086,-130.859,-110.352,-41.016
1789910730.152100,-39.062,-135.254,-112.793,-41.016
1789910730.155969,-28.320,-144.531,-118.164,-35.156
1789910730.159839,-25.391,-149.414,-117.188,-31.738
1789910730.163708,-41.016,-155.273,-118.652,-30.762
1789910730.167578,-46.875,-165.527,-123.047,-41.016
1789910730.171447,-41.504,-164.062,-115.723,-57.617
1789910730.175317,-29.297,-151.367,-105.957,-36.133
1789910730.179186,-39.551,-143.066,-106.934,-26.855
1789910730.183056,-41.016,-124.023,-112.793,-23.926
1789910730.187470,-15.625,-115.723,-94.238,-15.625
1789910730.191339,-10.742,-130.859,-93.750,-9.277
1789910730.195210,-15.625,-130.371,-104.980,-11.719
1789910730.199079,-15.137,-118.164,-104.492,-40.527
1789910730.202949,6.348,-106.445,-107.422,-14.648
1789910730.206819,24.902,-109.375,-93.262,3.418
1789910730.210689,-19.043,-130.859,-85.938,-39.551
1789910730.214559,-41.992,-130.371,-90.332,-41.016
1789910730.218429,-40.039,-120.117,-94.727,-34.668
1789910730.222299,-35.156,-125.488,-92.773,-26.855
1789910730.226168,-31.250,-124.023,-96.191,-31.738
1789910730.230038,-45.898,-115.723,-96.680,-58.105
1789910730.234406,-46.387,-109.375,-94.727,-59.082
1789910730.238276,-32.715,-104.980,-96.191,-52.734
1789910730.242146,-27.344,-98.145,-87.402,-38.086
1789910730.246017,-38.086,-90.332,-85.449,-39.062
1789910730.249887,-35.156,-82.520,-90.820,-47.852
1789910730.253757,-37.109,-92.285,-96.680,-48.340
1789910730.257627,-44.922,-110.840,-102.051,-49.316
1789910730.261497,-33.691,-112.305,-102.051,-58.594
1789910730.265368,-24.902,-99.609,-94.727,-44.922
1789910730.269238,-41.016,-96.680,-90.332,-51.758
1789910730.273108,-39.551,-100.586,-91.797,-55.664
1789910730.276978,-17.090,-81.543,-84.473,-26.855
1789910730.281320,-23.438,-69.336,-71.777,-23.438
1789910730.285190,-35.156,-84.961,-87.891,-45.410
1789910730.289061,-42.969,-87.891,-107.422,-58.105
1789910730.292931,-46.387,-86.426,-106.934,-56.152
1789910730.296802,-35.645,-85.449,-94.238,-57.617
1789910730.300672,-40.039,-80.078,-95.215,-63.965
1789910730.304543,-43.945,-79.590,-94.238,-59.082
1789910730.308413,-35.156,-83.984,-89.844,-44.434
1789910730.312284,-44.922,-86.426,-89.355,-42.969
1789910730.316154,-55.176,-88.379,-79.102,-55.664
1789910730.320024,-55.176,-96.680,-84.961,-52.246
1789910730.323895,-42.969,-97.656,-93.262,-43.457
1789910730.328257,-32.715,-85.449,-84.473,-50.293
1789910730.332128,-51.758,-85.938,-83.008,-54.199
1789910730.335998,-67.871,-97.168,-85.938,-54.199
1789910730.339869,-62.988,-97.656,-92.285,-64.453
1789910730.343740,-55.664,-85.938,-93.750,-62.988
1789910730.347611,-58.594,-80.078,-94.238,-42.969
1789910730.351481,-62.500,-78.613,-93.750,-47.363
1789910730.355352,-48.340,-76.172,-87.402,-49.805
1789910730.359223,-37.598,-70.312,-83.008,-43.945
1789910730.363094,-38.086,-62.988,-84.473,-48.340
1789910730.366964,-37.109,-62.500,-94.238,-56.641
1789910730.370835,-32.227,-53.223,-90.332,-51.758
1789910730.375099,-33.691,-45.410,-85.938,-47.852
1789910730.378970,-31.250,-55.664,-93.262,-63.965
1789910730.382841,-39.062,-64.941,-93.750,-60.059
1789910730.386712,-39.062,-61.035,-87.402,-49.805
1789910730.390583,-33.203,-56.641,-82.031,-48.340
1789910730.394454,-27.832,-56.641,-83.984,-59.082
1789910730.398325,-30.762,-51.758,-85.449,-57.129
1789910730.402196,-35.645,-52.734,-84.961,-35.156
1789910730.406067,-36.133,-66.406,-84.961,-40.527
1789910730.409938,-37.109,-80.078,-89.355,-54.199
1789910730.413809,-52.734,-91.309,-90.820,-55.664
1789910730.417680,-58.105,-101.074,-87.891,-55.664
1789910730.421908,-35.156,-109.863,-90.820,-57.129
1789910730.425779,-40.039,-113.281,-85.449,-41.504
1789910730.429650,-58.105,-107.422,-85.938,-48.340
1789910730.433522,-72.266,-110.352,-87.891,-72.266
1789910730.437393,-66.895,-114.746,-93.750,-68.848
1789910730.441264,-55.176,-107.910,-99.121,-64.941
1789910730.445135,-64.941,-96.680,-96.680,-66.406
1789910730.449006,-86.914,-98.633,-96.680,-76.172
1789910730.452878,-74.219,-93.262,-88.867,-62.988
1789910730.456749,-58.594,-93.262,-94.238,-61.523
1789910730.460620,-71.289,-108.887,-99.121,-83.496
1789910730.464491,-68.359,-108.887,-98.145,-75.195
1789910730.468702,-64.941,-121.582,-100.586,-72.266
1789910730.472573,-67.871,-128.418,-102.051,-75.684
1789910730.476445,-68.359,-122.559,-104.980,-80.078
1789910730.480316,-69.336,-131.348,-112.793,-87.891
1789910730.484188,-73.730,-138.184,-118.164,-84.961
1789910730.488059,-57.129,-131.836,-116.699,-70.801
1789910730.491930,-53.711,-130.371,-111.328,-70.801
1789910730.495802,-67.871,-132.324,-106.934,-81.543
1789910730.499673,-69.336,-145.508,-112.305,-83.496
1789910730.503545,-62.988,-142.090,-111.816,-76.172
1789910730.507416,-55.664,-130.371,-104.980,-64.941
1789910730.511287,-44.922,-128.906,-94.238,-63.477
1789910730.516021,-49.316,-126.953,-96.191,-67.871
1789910730.519893,-62.500,-117.676,-90.820,-66.895
1789910730.523765,-58.594,-118.164,-86.914,-48.340
1789910730.527637,-47.852,-115.234,-99.609,-48.828
1789910730.531508,-34.668,-99.121,-99.121,-62.988
1789910730.535380,-38.086,-95.703,-98.633,-65.430
1789910730.539252,-43.945,-88.867,-96.680,-62.500
1789910730.543124,-35.645,-82.520,-89.355,-64.453
1789910730.546996,-41.992,-90.332,-89.844,-65.918
1789910730.550868,-55.176,-88.379,-93.262,-70.801
1789910730.554740,-53.711,-78.125,-85.938,-79.590
1789910730.558612,-49.316,-84.473,-89.355,-67.871
1789910730.563301,-41.992,-84.473,-95.215,-64.453
1789910730.567173,-46.875,-80.566,-97.168,-75.684
1789910730.571045,-63.965,-93.750,-102.051,-88.379
1789910730.574918,-52.734,-98.145,-103.516,-80.078
1789910730.578790,-50.293,-86.426,-102.539,-67.871
1789910730.582663,-60.059,-75.684,-98.145,-68.359
1789910730.586535,-59.082,-72.754,-95.703,-79.590
1789910730.590407,-60.059,-75.195,-92.773,-67.383
1789910730.594280,-62.500,-79.102,-95.215,-50.781
1789910730.598152,-58.594,-71.777,-93.750,-61.523
1789910730.602025,-55.176,-77.637,-90.820,-69.336
1789910730.605897,-47.363,-79.590,-90.820,-76.172
1789910730.610234,-28.809,-76.172,-93.262,-62.500
1789910730.614107,-31.738,-86.426,-88.867,-53.223
1789910730.617980,-46.875,-81.543,-88.379,-70.312
1789910730.621852,-50.293,-75.195,-96.680,-62.988
1789910730.625725,-46.387,-72.754,-95.215,-56.641
1789910730.629598,-41.016,-77.148,-94.727,-58.594
1789910730.633470,-52.734,-95.215,-100.586,-78.613
1789910730.637343,-49.316,-88.379,-97.168,-88.867
1789910730.641216,-40.527,-77.148,-92.285,-75.195
1789910730.645088,-42.480,-74.219,-88.379,-53.223
1789910730.648961,-45.898,-76.660,-83.496,-50.293
1789910730.652834,-43.457,-95.215,-80.566,-56.152
1789910730.657155,-59.570,-100.586,-81.055,-44.922
1789910730.661028,-57.129,-97.656,-83.984,-67.871
1789910730.664901,-57.617,-104.004,-94.238,-79.590
1789910730.668773,-54.688,-97.168,-98.633,-64.453
1789910730.672646,-39.062,-92.773,-87.402,-64.453
1789910730.676519,-44.434,-94.238,-83.008,-61.523
1789910730.680392,-44.434,-80.566,-78.613,-49.316
1789910730.684265,-42.480,-78.613,-83.496,-54.199
1789910730.688138,-42.480,-80.566,-88.867,-59.082
1789910730.692011,-57.617,-86.914,-91.309,-62.012
1789910730.695884,-61.523,-83.496,-99.121,-57.617
1789910730.699757,-62.500,-67.871,-95.703,-67.871
1789910730.704026,-61.035,-55.664,-93.262,-71.777
1789910730.707899,-51.758,-42.969,-97.168,-59.082
1789910730.711772,-54.688,-57.617,-98.145,-53.223
1789910730.715645,-59.570,-68.848,-100.586,-63.477
1789910730.719518,-62.988,-51.270,-89.844,-63.477
1789910730.723391,-62.012,-41.016,-78.613,-62.988
1789910730.727264,-53.711,-31.738,-82.031,-59.570
1789910730.731138,-55.176,-29.297,-85.449,-45.410
1789910730.735011,-58.105,-46.387,-86.914,-68.848
1789910730.738884,-59.082,-52.734,-93.262,-85.938
1789910730.742757,-66.895,-40.527,-101.074,-74.219
1789910730.746630,-59.570,-30.762,-96.191,-67.383
1789910730.750862,0.000,-23.438,-93.262,-72.266
1789910730.754735,0.000,-16.602,-90.332,-69.336
1789910730.758609,0.000,-36.133,-88.379,-70.312
1789910730.762482,0.000,-50.293,-91.309,-67.871
1789910730.766355,0.000,-47.852,-83.496,-65.430
1789910730.770229,0.000,-57.129,-104.004,-87.891
1789910730.774102,0.000,-67.871,-162.598,-75.684
1789910730.777975,0.000,-71.777,-187.500,-59.082
1789910730.781849,0.000,-80.078,-186.523,-73.730
1789910730.785722,0.000,-73.730,-187.988,-76.172
1789910730.789595,0.000,-67.383,-181.152,-74.219
1789910730.793469,0.000,-79.590,-179.199,-82.031
1789910730.797639,-59.082,-81.055,-182.129,-90.332
1789910730.801512,-69.824,-72.266,-173.340,-87.402
1789910730.805386,-55.176,-51.270,-153.320,-90.332
1789910730.809259,-38.086,-26.855,-133.301,-80.078
1789910730.813133,-40.527,-20.020,-131.836,-62.012
1789910730.817007,-67.871,-26.855,-125.977,-83.008
1789910730.820880,-98.145,-28.320,-114.258,-106.934
1789910730.824754,-94.238,-26.855,-114.258,-110.840
1789910730.828627,-89.355,-24.414,-116.211,-123.047
1789910730.832500,-116.211,-4.883,-102.539,-128.906
1789910730.836374,-125.488,23.926,-77.637,-128.906
1789910730.840248,-109.863,27.832,-78.125,-145.508
1789910730.844421,-97.656,31.738,-82.031,-145.996
1789910730.848295,-155.273,40.039,-54.688,-174.316
1789910730.852169,-194.336,49.805,-42.480,-213.867
1789910730.856042,-179.688,60.547,-50.293,-202.637
1789910730.859916,-190.430,50.293,-48.340,-218.750
1789910730.863790,-211.914,48.340,-45.898,-231.934
1789910730.867663,-243.164,38.086,-30.273,-233.887
1789910730.871537,-233.398,28.320,-28.809,-238.770
1789910730.875411,-213.867,23.926,-25.391,-219.238
1789910730.879284,-213.379,16.113,-22.461,-210.938
1789910730.883158,-200.684,7.324,-35.156,-202.637
1789910730.887032,-192.383,-17.090,-38.086,-220.703
1789910730.891478,-186.035,-35.156,-51.758,-216.309
1789910730.895352,-163.574,-31.250,-58.105,-180.664
1789910730.899225,-160.645,-40.039,-54.199,-182.129
1789910730.903100,-156.250,-58.105,-56.152,-185.547
1789910730.906974,-119.141,-72.754,-66.895,-147.461
1789910730.910848,-117.188,-94.238,-72.266,-131.836
1789910730.914721,-139.648,-108.398,-70.312,-139.160
1789910730.918596,-126.953,-114.258,-70.801,-118.164
1789910730.922470,-104.004,-119.141,-81.055,-109.375
1789910730.926344,-85.449,-118.164,-95.215,-116.699
1789910730.930218,-97.168,-117.188,-101.562,-118.652
1789910730.934092,-110.840,-112.793,-101.074,-104.004
1789910730.938554,-63.965,-107.910,-98.633,-71.289
1789910730.942429,-48.828,-106.934,-101.562,-64.453
1789910730.946303,-64.941,-115.234,-111.328,-67.383
1789910730.950177,-70.312,-121.094,-118.652,-62.500
1789910730.954051,-64.453,-124.023,-128.418,-72.266
1789910730.957926,-47.852,-133.301,-133.789,-74.219
1789910730.961800,-37.598,-126.465,-121.094,-46.387
1789910730.965675,-43.945,-126.465,-120.117,-42.480
1789910730.969549,-33.691,-124.023,-121.094,-41.992
1789910730.973423,-9.766,-115.723,-107.910,-18.066
1789910730.977298,-15.137,-119.141,-104.980,-29.785
1789910730.981172,-23.438,-122.559,-111.328,-14.648
1789910730.985491,-30.762,-131.836,-118.164,-25.879
1789910730.989366,-45.410,-141.602,-122.070,-59.570
1789910730.993240,-45.898,-145.508,-125.000,-47.852
1789910730.997115,-30.273,-134.277,-119.629,-20.996
1789910731.000989,-21.973,-120.605,-114.746,-13.672
1789910731.004864,-32.227,-114.746,-123.047,-19.531
1789910731.008739,-26.855,-100.586,-117.676,-21.484
1789910731.012613,-18.066,-88.379,-105.957,-36.621
1789910731.016488,-43.457,-85.938,-109.375,-37.598
1789910731.020362,-41.992,-85.938,-115.723,-27.344
1789910731.024237,-16.602,-86.426,-112.793,-25.391
1789910731.028111,-3.906,-87.891,-110.352,-34.180
1789910731.032406,0.000,-85.938,-111.328,-37.598
1789910731.036280,0.000,-72.754,-103.516,-36.621
1789910731.040155,0.000,-76.172,-102.051,-25.879
1789910731.044030,0.000,-80.566,-104.492,-20.020
1789910731.047905,0.000,-77.637,-99.609,-29.297
1789910731.051780,0.000,-74.707,-97.656,-27.832
1789910731.055654,0.000,-70.312,-95.703,-24.414
1789910731.059529,0.000,-73.730,-93.750,-10.254
1789910731.063404,0.000,-86.426,-96.680,-3.418
1789910731.067279,0.000,-92.285,-95.703,-21.484
1789910731.071154,0.000,-92.773,-89.844,-29.297
1789910731.075028,0.000,-107.422,-95.703,-27.344
1789910731.079257,-16.602,-114.746,-102.539,-33.691
1789910731.083132,-25.879,-103.027,-101.074,-39.551
1789910731.087007,-17.578,-100.586,-95.215,-36.133
1789910731.090882,-3.906,-94.238,-83.008,-17.578
1789910731.094757,-3.418,-80.566,-82.031,-11.230
1789910731.098632,-17.090,-88.379,-93.750,-25.391
1789910731.102507,-32.227,-98.145,-97.168,-44.434
1789910731.106382,-14.648,-94.727,-83.984,-28.320
1789910731.110257,-11.719,-81.543,-74.707,-17.578
1789910731.114132,-19.531,-73.242,-86.914,-30.762
1789910731.118007,-7.812,-65.430,-91.797,-32.227
1789910731.121882,-22.461,-73.242,-86.914,-39.551
1789910731.126100,0.000,-85.449,-91.797,-40.039
1789910731.129975,0.000,-76.172,-90.332,-22.949
1789910731.133850,0.000,-66.406,-85.938,-28.809
1789910731.137726,0.000,-52.246,-83.008,-47.363
1789910731.141601,0.000,-40.527,-83.496,-45.410
1789910731.145476,0.000,-38.086,-89.355,-48.340
1789910731.149351,0.000,-37.109,-96.191,-24.414
1789910731.153226,0.000,-39.551,-94.727,-1.953
1789910731.157101,0.000,-40.039,-68.359,-50.293
1789910731.160977,0.000,-40.039,-60.547,-79.590
1789910731.164852,0.000,-38.086,-66.895,-52.246
1789910731.168727,0.000,-40.527,-69.824,-62.012
1789910731.172886,-67.383,-38.086,-71.777,-78.125
1789910731.176762,-69.824,-37.598,-65.430,-74.707
1789910731.180637,-84.473,-45.898,-66.895,-76.172
1789910731.184512,-97.656,-50.781,-72.266,-73.242
1789910731.188388,-87.891,-44.922,-80.078,-68.359
1789910731.192263,-70.312,-49.805,-82.031,-70.801
1789910731.196138,-70.801,-49.805,-83.496,-72.754
1789910731.200014,-74.219,-40.527,-78.125,-75.195
1789910731.203889,-75.684,-40.527,-71.777,-82.031
1789910731.207764,-58.594,-34.668,-75.195,-64.453
1789910731.211639,-47.852,-30.762,-75.195,-57.129
1789910731.215515,-66.406,-33.203,-71.777,-55.664
1789910731.219650,-81.055,-40.527,-74.707,-62.012
1789910731.223525,-62.988,-48.828,-70.312,-58.105
1789910731.227401,-49.805,-47.852,-67.871,-56.641
1789910731.231276,-49.316,-47.852,-62.500,-49.805
1789910731.235152,-41.992,-50.293,-55.176,-44.434
1789910731.239027,-36.133,-47.852,-61.523,-41.016
1789910731.242903,-20.996,-28.320,-53.711,-19.043
1789910731.246778,-35.156,-33.203,-60.547,-33.203
1789910731.250653,-58.594,-57.617,-85.449,-48.828
1789910731.254529,-58.105,-63.477,-78.613,-53.711
1789910731.258404,-53.223,-61.035,-67.871,-50.781
1789910731.262280,-42.969,-64.941,-75.684,-52.246
1789910731.266665,-44.922,-61.035,-81.543,-55.664
1789910731.270541,-54.199,-58.105,-76.172,-43.457
1789910731.274417,-47.363,-58.594,-73.242,-41.016
1789910731.278293,-43.945,-47.852,-73.730,-43.945
1789910731.282168,-53.223,-55.664,-77.637,-48.340
1789910731.286044,-58.594,-64.941,-75.195,-49.805
1789910731.289920,-51.270,-59.082,-70.801,-52.734
1789910731.293796,-44.922,-41.992,-72.266,-47.363
1789910731.297671,-62.988,-34.668,-87.402,-52.246
1789910731.301547,-70.312,-45.898,-93.750,-65.430
1789910731.305423,-44.434,-36.621,-68.848,-46.875
1789910731.309299,-28.320,-22.461,-60.059,-41.992
1789910731.313625,-46.875,-31.738,-83.984,-62.500
1789910731.317501,-51.270,-30.273,-82.520,-49.316
1789910731.321377,-50.781,-35.156,-75.684,-54.688
1789910731.325253,-45.898,-37.109,-73.242,-52.246
1789910731.329129,-38.574,-34.180,-74.707,-41.504
1789910731.333005,-41.016,-25.391,-83.008,-49.805
1789910731.336881,-34.180,-20.508,-82.031,-50.781
1789910731.340757,-24.902,-16.113,-84.473,-55.176
1789910731.344633,-16.602,-8.789,-88.867,-44.922
1789910731.348509,-33.691,-12.695,-91.797,-43.457
1789910731.352385,-74.707,-19.043,-85.449,-61.035
1789910731.356261,-60.547,-20.020,-69.336,-46.387
1789910731.360585,-42.969,-31.250,-64.941,-48.340
1789910731.364462,-62.012,-44.922,-79.102,-70.801
1789910731.368338,-70.312,-51.270,-87.891,-75.195
1789910731.372214,-55.176,-50.781,-82.520,-60.547
1789910731.376090,-53.223,-32.227,-75.684,-49.805
1789910731.379966,-55.176,-18.555,-65.918,-57.129
1789910731.383843,-60.547,-12.207,-53.223,-53.711
1789910731.387719,-66.895,-5.371,-52.246,-64.453
1789910731.391595,-66.406,-5.859,-50.293,-75.684
1789910731.395471,-72.266,18.555,-26.367,-79.102
1789910731.399348,-102.051,28.320,-26.855,-107.422
1789910731.403224,-110.840,21.973,-18.066,-119.141
1789910731.407484,-96.680,44.434,-3.418,-113.281
1789910731.411360,-119.141,52.734,-7.324,-139.648
1789910731.415236,-149.902,58.105,2.441,-160.645
1789910731.419113,-162.109,69.824,0.977,-172.852
1789910731.422989,-163.086,68.359,-5.859,-182.129
1789910731.426866,-166.504,69.336,14.648,-183.105
1789910731.430742,-203.613,62.988,37.598,-209.473
1789910731.434618,-219.238,62.500,43.945,-209.961
1789910731.438495,-180.664,65.430,36.621,-196.289
1789910731.442371,-171.875,63.477,44.922,-208.984
1789910731.446248,-197.266,55.664,51.758,-198.242
1789910731.450124,-204.590,49.316,41.016,-187.988
1789910731.454345,-181.641,38.574,44.922,-179.199
1789910731.458222,-148.438,20.020,30.273,-157.227
1789910731.462098,-138.672,10.254,9.277,-152.344
1789910731.465975,-155.273,7.812,16.602,-156.738
1789910731.469851,-163.574,-7.324,5.859,-153.320
1789910731.473728,-110.840,-14.648,-10.742,-127.930
1789910731.477605,-99.121,-21.973,-22.461,-117.188
1789910731.481481,-95.703,-27.832,-18.066,-94.727
1789910731.485358,-76.172,-29.297,-7.812,-79.590
1789910731.489234,-84.961,-66.895,-39.551,-89.355
1789910731.493111,-57.129,-78.613,-59.082,-74.707
1789910731.496988,-45.410,-60.547,-56.152,-72.754
1789910731.501165,-42.969,-55.176,-62.988,-77.637
1789910731.505042,-29.785,-46.875,-79.102,-59.570
1789910731.508918,-19.043,-41.016,-82.031,-41.992
1789910731.512795,-17.090,-40.039,-71.777,-41.504
1789910731.516672,-14.160,-39.062,-73.242,-23.926
1789910731.520548,-13.184,-46.875,-82.520,-25.879
1789910731.524425,-5.371,-54.688,-86.426,-23.926
1789910731.528302,1.953,-55.176,-90.820,-0.977
1789910731.532179,-6.836,-58.594,-90.820,-11.230
1789910731.536055,-16.602,-65.430,-87.891,-24.414
1789910731.539932,-13.184,-55.664,-90.820,-20.020
1789910731.543809,2.930,-55.176,-97.656,-12.695
1789910731.548041,1.953,-66.895,-102.539,-10.254
1789910731.551918,-8.301,-62.988,-97.168,4.883
1789910731.555794,16.113,-58.594,-89.844,22.949
1789910731.559671,27.832,-61.035,-89.844,14.648
1789910731.563548,24.902,-52.246,-96.680,16.602
1789910731.567425,7.812,-51.270,-106.934,12.695
1789910731.571302,-4.883,-51.758,-106.445,12.695
1789910731.575179,15.137,-51.270,-102.051,12.695
1789910731.579056,13.184,-58.594,-108.398,-5.859
1789910731.582933,5.371,-48.828,-104.980,0.977
1789910731.586810,10.254,-50.781,-95.215,-8.301
1789910731.590687,21.973,-61.523,-90.820,-5.371
1789910731.594807,20.020,-56.641,-87.891,10.742
1789910731.598684,5.859,-52.734,-94.727,-3.906
1789910731.602561,19.531,-39.062,-93.262,6.348
1789910731.606438,24.414,-45.410,-94.238,0.977
1789910731.610315,14.648,-70.801,-110.840,-24.414
1789910731.614192,7.812,-78.613,-115.234,-14.160
1789910731.618069,-17.578,-72.266,-111.816,-11.719
1789910731.621946,-11.230,-56.152,-102.051,-22.461
1789910731.625823,1.465,-57.617,-103.516,-28.809
1789910731.629700,-3.418,-65.918,-114.258,-10.742
1789910731.633577,-15.137,-68.359,-116.211,-12.695
1789910731.637454,-10.742,-67.383,-100.098,-23.926
1789910731.641862,11.230,-62.500,0.000,-4.395
1789910731.645740,3.418,-64.941,0.000,-15.625
1789910731.649617,0.000,-66.895,0.000,-17.578
1789910731.653494,-8.789,-63.965,0.000,-23.926
1789910731.657372,-13.672,-57.129,0.000,-28.809
1789910731.661249,0.977,-52.246,0.000,-20.996
1789910731.665126,4.395,-44.922,0.000,-15.625
1789910731.669003,-8.301,-46.387,0.000,-21.484
1789910731.672881,-14.648,-41.992,0.000,-18.066
1789910731.676758,-6.348,-20.508,0.000,-16.113
1789910731.680635,-4.883,-22.461,0.000,-34.668
1789910731.684513,-7.324,-33.203,0.000,-33.203
1789910731.688817,-15.137,-29.785,-93.750,-33.691
1789910731.692695,-17.578,-15.625,-95.703,-36.133
1789910731.696572,-19.531,-0.488,-92.773,-29.297
1789910731.700450,-16.113,-2.930,-87.402,-30.273
1789910731.704327,-13.184,-11.719,-94.727,-27.344
1789910731.708205,-5.371,-9.277,-95.215,-30.273
1789910731.712082,-10.254,-11.230,-93.750,-45.410
1789910731.715960,-37.598,-22.461,-96.191,-48.828
1789910731.719837,-41.992,-21.484,-97.168,-41.016
1789910731.723715,-25.879,-20.508,-90.820,-37.109
1789910731.727592,-28.320,-23.438,-83.496,-36.621
1789910731.731470,-22.949,-11.230,-87.891,-30.273
1789910731.735739,0.000,-8.301,-94.238,-40.527
1789910731.739617,0.000,-18.555,-88.867,-57.617
1789910731.743494,0.000,-34.668,-91.797,-57.129
1789910731.747372,0.000,-40.039,-93.750,-50.781
1789910731.751250,0.000,-32.715,-78.125,-49.805
1789910731.755127,0.000,-28.320,-78.613,-39.551
1789910731.759005,0.000,-37.109,-80.566,-33.691
1789910731.762883,0.000,-46.875,-78.125,-41.504
1789910731.766761,0.000,-40.527,-80.566,-42.969
1789910731.770638,0.000,-38.574,-69.336,-44.922
1789910731.774516,0.000,-41.504,-70.801,-42.969
1789910731.778394,0.000,-35.645,-74.219,-50.781
1789910731.782615,-55.176,-25.391,-65.918,-51.758
1789910731.786493,-58.594,-14.160,-58.105,-64.453
1789910731.790371,-50.781,6.348,-57.129,-74.219
1789910731.794249,-45.410,10.742,-49.316,-65.430
1789910731.798127,-47.363,-6.836,-40.039,-73.242
1789910731.802005,-65.430,-9.277,-43.945,-86.914
1789910731.805883,-74.219,-4.883,-38.574,-95.215
1789910731.809761,-74.707,-4.395,-35.645,-91.797
1789910731.813638,-94.727,4.883,-25.879,-95.215
1789910731.817516,-126.465,17.578,-14.160,-132.812
1789910731.821394,-105.957,28.320,-8.789,-135.254
1789910731.825272,-109.863,27.832,-4.395,-128.418
1789910731.829469,-127.441,26.367,4.395,-123.047
1789910731.833347,-123.535,54.688,11.230,-125.977
1789910731.837225,-145.508,69.336,5.371,-148.438
1789910731.841103,-154.297,42.969,12.207,-156.250
1789910731.844981,-142.090,34.668,15.625,-162.598
1789910731.848860,-163.086,36.133,2.930,-177.734
1789910731.852737,-187.012,23.438,8.301,-178.711
1789910731.856616,-164.062,14.160,17.090,-162.598
1789910731.860494,-145.020,10.742,8.789,-165.527
1789910731.864372,-144.043,1.953,-0.977,-155.273
1789910731.868250,-132.812,-5.371,-16.602,-145.508
1789910731.872128,-120.117,-3.906,-36.133,-144.531
1789910731.876297,-112.793,-15.137,-38.574,-121.094
1789910731.880175,-112.793,-24.902,-39.062,-108.398
1789910731.884053,-105.957,-21.484,-46.875,-99.121
1789910731.887931,-80.566,-18.555,-55.664,-94.238
1789910731.891809,-55.176,-25.879,-64.941,-74.707
1789910731.895687,-46.387,-41.504,-71.777,-52.734
1789910731.899565,-47.852,-62.012,-75.195,-50.781
1789910731.903444,-33.203,-60.059,-73.242,-32.227
1789910731.907322,-35.156,-47.852,-72.754,-48.340
1789910731.911200,-35.156,-58.105,-83.984,-53.711
1789910731.915078,-41.992,-65.430,-100.586,-41.504
1789910731.918957,-44.434,-71.289,-99.121,-42.480
1789910731.923087,-19.043,-70.801,-89.844,-34.180
1789910731.926965,2.441,-57.617,-83.008,-21.484
1789910731.930844,-9.277,-56.641,-88.867,-20.508
1789910731.934722,-6.348,-55.664,-90.820,-21.973
1789910731.938600,16.113,-42.480,-85.449,-22.949
1789910731.942478,11.719,-43.457,-87.402,-5.371
1789910731.946357,12.207,-47.852,-93.262,8.789
1789910731.950235,3.906,-42.480,-98.633,-8.789
1789910731.954113,3.418,-50.781,-102.539,-18.555
1789910731.957992,25.391,-61.035,-104.980,-6.836
1789910731.961870,20.020,-51.270,-104.004,-4.883
1789910731.965748,7.812,-43.457,-98.145,-12.695
1789910731.970094,14.160,-54.688,-97.656,-7.324
1789910731.973973,16.602,-55.664,-102.539,5.859
1789910731.977851,4.883,-58.594,-102.051,-17.090
1789910731.981730,-7.324,-58.594,-105.469,-28.809
1789910731.985608,-13.184,-63.965,-106.934,-10.254
1789910731.989487,-8.789,-76.172,-104.980,-13.184
1789910731.993365,5.371,-77.637,-108.887,-21.973
1789910731.997244,-6.836,-81.543,-106.934,-28.809
1789910732.001122,-12.207,-80.566,-104.492,-23.438
1789910732.005001,-2.930,-78.613,-110.840,-22.461
1789910732.008879,7.324,-75.684,-106.934,-20.996
1789910732.012758,17.090,-72.266,-98.145,-7.812
1789910732.017067,2.441,-65.918,-100.586,-17.090
1789910732.020946,-1.465,-59.082,-99.609,-24.902
1789910732.024824,14.160,-48.340,-89.355,-10.254
1789910732.028703,8.789,-38.574,-80.566,-9.277
1789910732.032582,5.859,-45.410,-86.914,-17.090
1789910732.036460,-0.488,-41.992,-91.797,-1.465
1789910732.040339,8.789,-38.086,-80.566,3.906
1789910732.044218,19.043,-41.992,-77.148,-1.465
1789910732.048097,10.742,-41.016,-86.914,4.883
1789910732.051975,8.301,-44.434,-83.496,6.836
1789910732.055854,-4.883,-36.621,-82.520,-11.230
1789910732.059733,-20.996,-34.180,-87.402,-23.926
1789910732.064014,-18.555,-34.180,-83.496,-21.973
1789910732.067893,-10.742,-18.555,-76.172,-16.113
1789910732.071772,-15.625,-23.438,-74.219,-24.902
1789910732.075651,0.488,-41.016,-78.125,-10.742
1789910732.079530,0.000,-44.922,-75.684,-10.254
1789910732.083409,-16.113,-40.039,-74.219,-28.809
1789910732.087288,-23.438,-38.086,-83.496,-36.621
1789910732.091167,-27.344,-44.434,-86.914,-40.039
1789910732.095046,-29.297,-46.387,-74.219,-31.250
1789910732.098925,-32.715,-36.621,-65.918,-25.879
1789910732.102804,-43.457,-39.551,-74.707,-50.781
1789910732.106683,-45.898,-39.551,-72.266,-68.359
1789910732.111071,-54.199,-27.344,-66.895,-75.684
1789910732.114951,-55.664,-35.645,-66.895,-73.242
1789910732.118830,-66.895,-31.738,-62.012,-76.172
1789910732.122709,-80.078,-16.602,-52.246,-88.379
1789910732.126588,-73.242,-18.066,-40.039,-87.891
1789910732.130467,-97.168,-19.043,-33.691,-90.820
1789910732.134346,-132.324,-1.465,-20.508,-112.793
1789910732.138226,-124.512,23.438,-17.090,-126.465
1789910732.142105,-107.422,14.648,-13.184,-114.258
1789910732.145984,-120.117,1.953,10.742,-131.836
1789910732.149863,-158.203,1.953,17.090,-156.250
1789910732.153742,-157.227,23.926,-2.930,-159.180
1789910732.157950,-142.090,31.250,-0.977,-166.016
1789910732.161830,-158.691,14.648,17.578,-167.969
1789910732.165709,-178.223,14.648,14.160,-182.617
1789910732.169588,-174.805,15.137,12.207,-171.387
1789910732.173468,-167.969,-6.836,18.555,-163.574
1789910732.177347,-155.762,-20.020,8.301,-162.598
1789910732.181226,-134.766,-19.531,-8.301,-145.020
1789910732.185106,-144.043,-42.480,-8.789,-132.812
1789910732.188985,-118.164,-56.641,-6.348,-118.652
1789910732.192864,-83.496,-43.457,-18.555,-101.562
1789910732.196743,-89.844,-41.504,-30.273,-88.867
1789910732.200623,-111.328,-60.547,-31.250,-106.445
1789910732.204804,-114.746,-84.473,-35.645,-109.375
1789910732.208683,-92.285,-92.773,-49.805,-84.473
1789910732.212563,-71.289,-82.031,-58.105,-57.129
1789910732.216442,-60.059,-75.195,-62.988,-50.781
1789910732.220322,-52.734,-68.359,-68.359,-48.828
1789910732.224201,-37.109,-65.430,-67.383,-31.250
1789910732.228081,-31.250,-62.988,-75.684,-26.855
1789910732.231960,-24.902,-60.547,-67.871,-11.230
1789910732.235840,-20.996,-53.711,-51.758,-4.883
1789910732.239719,-30.762,-51.758,-66.895,-15.137
1789910732.243598,-8.789,-65.430,-73.730,-8.301
1789910732.247478,0.000,-72.266,-71.777,-11.230
1789910732.251660,-23.438,-78.125,-79.102,-18.555
1789910732.255539,-20.020,-84.473,-82.520,-21.973
1789910732.259419,-8.301,-76.172,-89.844,-15.625
1789910732.263299,-8.789,-74.219,-89.355,-2.441
1789910732.267178,-13.672,-73.730,-83.496,-0.488
1789910732.271058,-8.789,-64.941,-91.309,-4.395
1789910732.274937,15.137,-63.965,-90.332,5.859
1789910732.278817,6.348,-60.059,-87.891,7.324
1789910732.282696,0.000,-49.805,-89.844,-2.930
1789910732.286576,11.719,-52.246,-96.680,-17.578
1789910732.290456,9.766,-52.734,-94.727,-18.066
1789910732.294335,13.184,-52.734,-94.238,-18.555
1789910732.298457,3.906,-55.664,-98.145,-15.625
1789910732.302336,-10.254,-49.805,-94.238,-5.859
1789910732.306216,16.113,-39.062,-93.750,-11.230
1789910732.310096,22.461,-33.203,-94.727,-5.859
1789910732.313976,10.254,-39.062,-100.098,-3.906
1789910732.317855,12.207,-41.016,-102.051,-10.742
1789910732.321735,2.441,-30.762,-100.586,-4.883
1789910732.325615,5.859,-18.555,-104.980,-5.371
1789910732.329494,5.859,-22.461,-104.004,-7.812
1789910732.333374,0.977,-29.297,-104.492,-13.184
1789910732.337254,0.488,-14.648,-99.609,-12.695
1789910732.341134,15.625,0.488,-91.797,-1.953
1789910732.345242,23.926,-8.789,-97.656,-15.625
1789910732.349122,5.859,-24.902,-103.516,-14.648
1789910732.353001,3.418,-19.531,-100.586,-7.324
1789910732.356881,6.348,-18.066,-92.285,-12.207
1789910732.360761,14.648,-29.785,-86.914,-4.883
1789910732.364641,3.906,-38.086,-93.750,-8.789
1789910732.368520,-19.531,-36.621,-93.750,-8.789
1789910732.372401,-17.578,-28.809,-83.496,-10.254
1789910732.376280,2.930,-24.902,-83.008,-5.859
1789910732.380160,10.742,-26.367,-86.426,-6.348
1789910732.384040,-12.207,-34.180,-92.773,-16.113
1789910732.387920,-16.602,-31.250,-91.797,-22.949
1789910732.392218,5.859,-16.113,-84.961,-16.113
1789910732.396098,20.996,-16.602,-86.426,-15.625
1789910732.399978,-6.348,-31.738,-91.797,-14.160
1789910732.403858,-29.297,-33.203,-87.891,-10.254
1789910732.407738,-7.324,-27.832,-82.031,-13.672
1789910732.411618,-0.977,-34.668,-89.355,-18.555
1789910732.415498,-9.766,-36.621,-93.750,-20.020
1789910732.419378,-15.137,-39.062,-89.355,-27.832
1789910732.423258,-20.020,-53.223,-90.820,-33.691
1789910732.427138,-15.625,-74.219,-86.426,-26.367
1789910732.431018,2.441,-72.266,-78.125,-34.668
1789910732.434898,-5.859,-61.523,-83.008,-29.297
1789910732.439163,-24.902,-70.801,-90.820,-26.367
1789910732.443043,-20.996,-74.707,-87.891,-25.879
1789910732.446923,-20.996,-79.102,-87.402,-28.320
1789910732.450803,-20.020,-73.730,-97.656,-39.062
1789910732.454683,-28.320,-69.824,-99.121,-50.781
1789910732.458564,-37.109,-76.172,-92.285,-41.992
1789910732.462444,-32.715,-77.637,-90.332,-34.180
1789910732.466324,-31.250,-84.473,-83.008,-35.156
1789910732.470204,-41.504,-85.938,-79.102,-23.438
1789910732.474084,-33.203,-93.262,-80.566,-17.578
1789910732.477964,-26.855,-102.051,-76.660,-36.621
1789910732.481845,-29.297,-105.957,-74.219,-23.438
1789910732.486074,-31.250,-114.746,-81.543,-31.250
1789910732.489954,-24.902,-109.375,-93.750,-48.828
1789910732.493835,-19.043,-98.633,-91.797,-34.668
1789910732.497715,-25.391,-99.121,-83.496,-29.785
1789910732.501595,-37.109,-101.074,-88.867,-35.156
1789910732.505476,-38.086,-91.797,-86.426,-43.457
1789910732.509356,-36.621,-95.215,-88.379,-42.969
1789910732.513236,-22.461,-93.262,-95.215,-44.922
1789910732.517117,-25.879,-83.984,-94.238,-41.504
1789910732.520997,-44.922,-92.285,-90.820,-32.227
1789910732.524878,-32.227,-98.633,-89.355,-51.758
1789910732.528758,-13.184,-100.586,-92.773,-57.617
1789910732.532963,0.000,-99.609,0.000,-41.504
1789910732.536844,0.000,-90.332,0.000,-44.922
1789910732.540724,0.000,-91.797,0.000,-54.199
1789910732.544605,0.000,-106.445,0.000,-46.387
1789910732.548485,0.000,-104.980,0.000,-33.203
1789910732.552366,0.000,-111.816,0.000,-56.152
1789910732.556246,0.000,-118.164,0.000,-66.895
1789910732.560127,0.000,-108.887,0.000,-47.363
1789910732.564007,0.000,-113.770,0.000,-37.598
1789910732.567888,0.000,-120.117,0.000,-58.105
1789910732.571768,0.000,-103.516,0.000,-52.734
1789910732.575649,0.000,-102.539,0.000,-54.199
1789910732.579817,-27.344,-109.863,-88.379,-58.105
1789910732.583698,-42.480,-104.004,-86.426,-47.363
1789910732.587578,-50.293,-105.469,-86.426,-47.852
1789910732.591459,-36.621,-98.633,-78.613,-35.156
1789910732.595339,-29.297,-82.031,-74.707,-40.039
1789910732.599220,-46.387,-77.637,-77.637,-50.781
1789910732.603101,-54.688,-81.543,-81.543,-54.199
1789910732.606981,-40.527,-85.449,-77.148,-40.527
1789910732.610862,-32.715,-82.520,-74.219,-35.645
1789910732.614743,-32.715,-78.613,-75.684,-42.969
1789910732.618623,-35.156,-78.125,-75.684,-36.133
1789910732.622504,-18.066,-76.172,-70.312,-32.227
1789910732.626670,-18.066,-78.613,-67.871,-32.715
1789910732.630551,-38.574,-82.520,-75.684,-41.992
1789910732.634432,-41.504,-83.984,-82.031,-36.133
1789910732.638312,-25.391,-84.961,-78.125,-30.762
1789910732.642193,-28.809,-88.867,-77.148,-40.527
1789910732.646074,-38.574,-95.703,-73.242,-41.992
1789910732.649955,-29.785,-96.680,-78.125,-35.156
1789910732.653835,-34.180,-102.539,-80.566,-34.668
1789910732.657716,-39.551,-94.727,-69.336,-51.758
1789910732.661597,-28.320,-79.102,-65.430,-40.527
1789910732.665478,-27.832,-70.801,-65.918,-36.621
1789910732.669358,-39.551,-60.547,-73.242,-59.570
1789910732.673481,-36.621,-61.035,-77.637,-59.570
1789910732.677361,-28.809,-63.477,-72.266,-50.781
1789910732.681242,-40.527,-59.082,-73.242,-49.805
1789910732.685123,-59.570,-59.082,-74.219,-57.617
1789910732.689004,-47.363,-54.688,-69.824,-58.594
1789910732.692885,-35.156,-53.711,-74.219,-55.176
1789910732.696766,-34.180,-53.711,-71.777,-49.805
1789910732.700647,-31.738,-40.527,-62.988,-54.688
1789910732.704527,-45.898,-38.086,-61.523,-70.312
1789910732.708408,-41.504,-43.945,-62.500,-55.664
1789910732.712289,-26.367,-55.176,-69.824,-51.270
1789910732.716170,-41.504,-53.711,-71.289,-58.105
1789910732.720254,-55.176,-44.922,-69.824,-62.500
1789910732.724135,-57.129,-51.758,-64.941,-74.219
1789910732.728016,-54.688,-51.270,-57.617,-74.707
1789910732.731897,-61.523,-44.922,-47.363,-73.730
1789910732.735778,-72.754,-38.086,-47.363,-77.637
1789910732.739659,-59.082,-29.785,-46.387,-80.078
1789910732.743540,-63.965,-40.527,-38.574,-81.055
1789910732.747421,-86.914,-39.062,-41.504,-95.703
1789910732.751302,-95.703,-21.973,-34.180,-89.844
1789910732.755183,-97.168,-19.531,-21.484,-87.891
1789910732.759064,-88.379,-13.184,-13.184,-112.793
1789910732.762945,-91.309,-8.789,-7.812,-113.770
1789910732.767224,-110.352,-11.230,-10.254,-112.793
1789910732.771105,-110.840,-6.836,-13.672,-119.629
1789910732.774986,-100.098,-8.789,-4.883,-113.770
1789910732.778867,-125.977,-6.836,21.973,-128.418
1789910732.782748,-129.395,-1.953,30.273,-148.438
1789910732.786629,-118.652,2.930,20.508,-140.625
1789910732.790510,-125.977,17.090,19.043,-141.113
1789910732.794391,-143.066,10.254,24.902,-163.086
1789910732.798273,-166.016,4.883,20.996,-158.691
1789910732.802154,-161.621,19.043,2.930,-158.203
1789910732.806035,-146.973,20.020,0.977,-165.039
1789910732.809916,-142.578,-9.277,11.230,-159.180
1789910732.814172,0.000,-20.996,-5.859,-148.438
1789910732.818053,0.000,-10.742,-30.762,-155.273
1789910732.821934,0.000,-21.484,-36.621,-149.414
1789910732.825815,0.000,-21.973,-30.762,-123.047
1789910732.829697,0.000,-20.020,-38.574,-103.516
1789910732.833578,0.000,-18.066,-52.246,-95.215
1789910732.837459,0.000,-13.184,-58.105,-92.773
1789910732.841341,0.000,-27.344,-57.617,-85.938
1789910732.845222,0.000,-33.691,-56.641,-72.754
1789910732.849103,0.000,-37.109,-68.848,-71.289
1789910732.852984,0.000,-46.875,-74.219,-83.008
1789910732.856866,0.000,-43.945,-77.148,-63.965
1789910732.860477,-141.602,-45.898,-83.008,-58.105
1789910732.864358,-141.113,-47.363,-83.496,-56.152
1789910732.868239,-122.070,-50.781,-83.496,-60.059
1789910732.872120,-100.098,-58.105,-85.938,-55.664
1789910732.876002,-87.402,-61.523,-92.285,-41.016
1789910732.879883,-81.055,-63.965,-91.797,-41.016
1789910732.883764,-77.637,-63.477,-86.914,-34.668
1789910732.887645,-80.078,-76.172,-88.867,-39.062
1789910732.891526,-61.035,-84.961,-88.867,-23.926
1789910732.895407,-75.195,-84.473,-97.168,-22.461
1789910732.899288,-91.309,-90.332,-103.516,-38.574
1789910732.903170,-52.734,-91.797,-97.168,-26.367
1789910732.907373,-18.066,-87.891,-88.379,-24.414
1789910732.911254,-11.230,-76.172,-87.402,-32.715
1789910732.915136,-6.348,-79.590,-95.703,-28.809
1789910732.919017,-20.996,-91.797,-100.098,-29.297
1789910732.922898,-34.180,-92.285,-104.980,-29.785
1789910732.926780,-24.902,-93.750,-111.328,-40.039
1789910732.930661,-27.832,-97.656,-104.004,-54.199
1789910732.934542,-17.090,-96.191,-92.773,-24.902
1789910732.938423,-16.113,-109.375,-96.191,-18.555
1789910732.942305,-19.531,-116.699,-97.656,-23.926
1789910732.946186,-11.719,-116.699,-94.727,-20.508
1789910732.950067,-18.066,-116.211,-100.586,-30.762
1789910732.954231,-17.578,-102.539,-92.773,-12.207
1789910732.958113,-21.484,-98.633,-81.543,3.418
1789910732.961994,-10.254,-97.656,-96.680,-18.066
1789910732.965875,-13.184,-86.914,-101.562,-26.855
1789910732.969757,-30.273,-81.055,-87.402,-22.949
1789910732.973638,2.441,-81.543,-89.355,-29.297
1789910732.977520,11.230,-84.961,-106.934,-28.320
1789910732.981401,-15.625,-92.285,-111.328,-26.367
1789910732.985283,-27.832,-77.637,-98.145,-20.020
1789910732.989164,-30.273,-73.242,-102.051,-22.949
1789910732.993046,-7.812,-81.055,-116.699,-37.109
1789910732.996927,-1.953,-83.008,-108.887,-27.344
1789910733.001063,-17.090,-89.355,-97.168,-25.879
1789910733.004945,-32.715,-90.332,-100.586,-21.973
1789910733.008826,-16.602,-92.773,-104.980,-11.719
1789910733.012708,-12.695,-96.191,-94.727,-26.855
1789910733.016589,-16.113,-82.520,-96.680,-32.227
1789910733.020471,-13.672,-67.383,-99.121,-18.066
1789910733.024352,-4.883,-71.777,-97.168,-14.160
1789910733.028234,0.488,-70.801,-97.168,-15.625
1789910733.032115,-18.555,-61.523,-96.191,-25.879
1789910733.035997,-27.344,-60.547,-98.145,-29.297
1789910733.039878,-24.414,-51.270,-86.914,-15.137
1789910733.043760,-13.672,-48.340,-86.914,-15.137
1789910733.047875,-18.066,-58.105,-85.938,-40.527
1789910733.051756,-11.230,-59.082,-81.055,-40.527
1789910733.055638,-12.207,-57.129,-80.566,-20.508
1789910733.059520,-17.578,-62.012,-74.707,-17.578
1789910733.063401,-12.207,-63.965,-72.266,-23.438
1789910733.067283,-23.438,-60.547,-74.707,-24.414
1789910733.071164,-26.855,-57.617,-70.801,-17.578
1789910733.075046,-27.344,-56.152,-73.242,-28.809
1789910733.078928,-32.227,-52.734,-75.195,-36.621
1789910733.082809,-28.809,-52.246,-64.453,-25.879
1789910733.086691,-36.621,-64.453,-68.848,-40.527
1789910733.090573,-47.363,-74.707,-75.684,-56.152
1789910733.094875,-49.805,-81.543,-75.195,-49.805
1789910733.098757,-56.641,-84.961,-83.496,-46.387
1789910733.102638,-54.199,-83.008,-81.055,-49.316
1789910733.106520,-44.922,-79.102,-71.777,-59.082
1789910733.110402,-43.945,-80.078,-76.660,-59.082
1789910733.114284,-45.410,-90.332,-84.473,-49.316
1789910733.118166,-70.312,-89.355,-80.566,-58.594
1789910733.122048,-74.219,-87.891,-82.520,-57.129
1789910733.125929,-55.176,-83.496,-84.473,-48.828
1789910733.129811,-52.734,-74.707,-84.961,-58.105
1789910733.133693,-47.363,-68.848,-81.543,-58.594
1789910733.137575,-39.062,-72.266,-68.359,-61.523
1789910733.141840,-25.391,-73.730,-61.035,-51.270
1789910733.145722,-29.297,-62.988,-64.453,-34.668
1789910733.149604,-47.363,-60.059,-60.547,-38.086
1789910733.153486,-48.828,-60.059,-55.176,-46.875
1789910733.157368,-39.551,-56.152,-62.500,-43.945
1789910733.161250,-31.250,-52.734,-59.570,-38.086
1789910733.165132,-33.203,-55.664,-56.641,-30.762
1789910733.169014,-46.875,-57.129,-59.082,-48.828
1789910733.172896,-44.922,-63.477,-65.430,-65.918
1789910733.176778,-29.785,-65.918,-64.941,-52.734
1789910733.180660,-48.828,-61.523,-54.688,-55.176
1789910733.184542,-65.918,-55.664,-45.898,-72.266
1789910733.188784,-52.246,-48.828,-34.668,-70.312
1789910733.192667,-55.176,-53.711,-37.109,-72.266
1789910733.196548,-69.336,-57.617,-41.992,-75.195
1789910733.200431,-69.824,-49.316,-41.504,-64.453
1789910733.204313,-63.477,-38.086,-28.320,-80.566
1789910733.208195,-56.152,-36.133,-19.043,-82.520
1789910733.212077,-58.105,-37.109,-28.809,-75.684
1789910733.215959,-59.082,-17.578,-31.250,-78.613
1789910733.219841,-64.941,0.000,-18.555,-75.195
1789910733.223723,-57.617,9.766,-5.371,-47.363
1789910733.227606,-65.430,10.742,-7.812,-66.895
1789910733.231488,-87.402,8.789,-16.602,-108.887
1789910733.235749,-91.309,26.855,-6.348,-96.191
1789910733.239632,-104.004,36.133,-4.395,-91.309
1789910733.243514,-110.840,38.086,0.977,-114.746
1789910733.247396,-128.906,41.504,7.324,-130.859
1789910733.251279,-139.160,41.016,-0.977,-129.883
1789910733.255161,-120.117,41.016,-2.441,-134.277
1789910733.259043,-123.535,36.133,5.371,-139.160
1789910733.262926,-137.207,34.180,13.672,-142.578
1789910733.266808,-147.461,23.438,17.578,-153.809
1789910733.270690,-152.832,25.391,13.184,-170.898
1789910733.274572,-136.719,36.133,11.230,-154.785
1789910733.278455,-145.020,16.113,-3.418,-156.250
1789910733.282643,-159.180,4.395,-5.371,-166.504
1789910733.286525,-130.371,6.836,-0.977,-121.582
1789910733.290408,-114.746,-2.441,-9.766,-99.609
1789910733.294290,-124.023,-25.391,-28.809,-132.812
1789910733.298172,-104.004,-48.828,-38.086,-144.531
1789910733.302055,-98.633,-52.246,-43.945,-115.723
