timestamp,TP9,AF7,AF8,TP10
1789992421.823726,0.000,0.000,0.000,0.000
1789992421.827586,0.000,0.000,-0.488,0.000
1789992421.831445,-2.930,-1.953,0.000,-1.465
1789992421.835305,6.836,3.906,-8.301,2.930
1789992421.839165,-33.203,-22.461,18.066,-14.648
1789992421.843024,-67.871,-53.711,-95.215,-39.062
1789992421.846884,-27.832,-45.410,-203.125,-21.484
1789992421.850743,-23.926,-47.852,-143.066,-11.230
1789992421.854603,-31.250,-50.293,-121.582,-21.484
1789992421.858463,-54.688,-53.711,-103.516,-38.086
1789992421.862322,-35.645,-52.246,-93.262,-37.598
1789992421.866182,1.465,-49.316,-76.660,-25.391
1789992421.869238,-31.738,-49.805,-24.902,-40.527
1789992421.873030,-57.129,-49.805,15.137,-54.688
1789992421.876823,-21.973,-53.223,30.273,-39.551
1789992421.880615,-1.465,-58.105,15.137,-17.578
1789992421.884408,-18.555,-58.594,-32.715,-32.715
1789992421.888201,-38.086,-55.664,-72.266,-39.551
1789992421.891993,-32.227,-57.129,-85.938,-21.484
1789992421.895786,-19.531,-55.664,-83.496,-36.621
1789992421.899578,-21.484,-54.688,-102.539,-45.410
1789992421.903371,-11.230,-53.711,-120.117,-18.555
1789992421.907164,-16.602,-55.664,-125.488,-19.531
1789992421.910956,2.930,-59.570,-117.676,-42.969
1789992421.912227,16.113,-53.711,-93.750,-29.297
1789992421.915915,-5.371,-51.758,-96.680,-26.855
1789992421.919602,-18.555,-50.293,-118.164,-28.320
1789992421.923290,-5.859,-47.852,-116.699,-21.973
1789992421.926977,16.113,-48.340,-117.188,-24.414
1789992421.930665,15.625,-51.270,-123.535,-31.738
1789992421.934353,-18.066,-56.152,-122.559,-35.645
1789992421.938040,-8.301,-53.711,-116.211,-24.414
1789992421.941728,22.949,-53.711,-104.980,-25.879
1789992421.945415,10.742,-56.641,-96.191,-38.574
1789992421.949103,-7.812,-51.758,-98.145,-46.875
1789992421.952790,-18.555,-53.223,-96.680,-46.875
1789992421.952756,16.602,-51.758,-69.824,-25.391
1789992421.956341,13.672,-43.945,-63.477,-22.461
1789992421.959925,-18.555,-47.363,-83.008,-22.461
1789992421.963509,-14.160,-47.363,-64.941,-17.090
1789992421.967093,29.297,-42.969,-35.645,-13.672
1789992421.970677,45.898,-40.039,-29.785,-9.766
1789992421.974261,16.602,-45.898,-41.992,-7.324
1789992421.977845,-15.137,-43.457,-46.387,-14.160
1789992421.981430,4.395,-35.156,-31.738,-18.555
1789992421.985014,38.086,-45.410,-35.645,-3.418
1789992421.988598,14.160,-46.875,-37.109,3.906
1789992421.992182,-17.090,-44.434,-16.113,-2.441
1789992421.993314,-18.555,-45.410,31.250,-20.996
1789992421.996847,14.648,-49.805,88.379,-12.695
1789992422.000380,10.254,-54.688,102.539,2.930
1789992422.003913,-20.996,-53.711,93.750,-10.254
1789992422.007446,-11.719,-54.199,91.797,-2.441
1789992422.010979,34.180,-54.199,105.957,19.531
1789992422.014513,24.902,-45.898,116.211,2.930
1789992422.018045,-22.949,-35.156,103.516,-36.133
1789992422.021579,-44.434,-34.180,112.793,-51.270
1789992422.025112,-23.438,-47.852,126.465,-41.016
1789992422.028645,-0.977,-55.664,100.586,-27.344
1789992422.032178,-5.371,-52.246,71.777,-13.184
1789992422.033477,-36.133,-57.617,41.016,-17.578
1789992422.036973,-43.945,-60.547,67.871,-22.461
1789992422.040468,-12.695,-55.664,119.141,-20.508
1789992422.043964,-19.043,-48.340,112.793,-1.465
1789992422.047460,-44.922,-48.828,107.910,-16.602
1789992422.050956,-35.156,-53.223,99.121,-32.227
1789992422.054452,4.395,-48.828,59.570,-23.438
1789992422.057948,-18.555,-51.758,47.852,-3.906
1789992422.061443,-53.711,-55.664,64.453,-12.695
1789992422.064939,-48.828,-46.875,73.242,-41.504
1789992422.068435,0.000,-44.434,92.773,-7.324
1789992422.071931,7.324,-46.387,99.609,2.930
1789992422.075218,-31.250,-43.457,99.609,-16.113
1789992422.078711,-40.527,-50.781,99.121,-35.645
1789992422.082204,7.324,-43.457,84.961,-20.996
1789992422.085697,23.438,-40.039,99.609,12.695
1789992422.089190,-27.344,-45.898,104.004,-6.836
1789992422.092683,-51.270,-49.805,78.125,-28.320
1789992422.096175,-17.090,-50.781,65.918,-8.301
1789992422.099669,16.602,-38.574,66.895,3.906
1789992422.103161,12.207,-33.691,82.520,-19.043
1789992422.106654,-9.766,-36.621,113.281,-28.320
1789992422.110147,-19.043,-34.180,132.324,-17.090
1789992422.113640,7.324,-25.391,139.648,-22.949
1789992422.116747,-7.812,-31.250,148.438,-22.461
1789992422.120235,-21.484,-42.480,154.785,-8.301
1789992422.123723,-17.090,-47.852,148.926,-11.719
1789992422.127212,19.043,-41.504,138.184,-20.508
1789992422.130700,40.039,-30.762,117.188,-12.695
1789992422.134188,-6.348,-39.551,107.422,-21.973
1789992422.137677,-44.922,-47.852,111.816,-40.039
1789992422.141165,-25.391,-48.828,112.305,-35.156
1789992422.144653,-15.137,-53.223,130.859,-34.668
1789992422.148142,-21.484,-50.293,134.766,-35.156
1789992422.151630,-7.812,-48.828,131.348,-25.879
1789992422.155118,7.812,-49.316,133.789,-16.113
1789992422.160351,22.461,-42.480,133.789,-0.488
1789992422.163857,2.441,-38.086,146.973,2.930
1789992422.167364,-42.480,-43.457,133.301,-19.043
1789992422.170870,-29.297,-41.992,111.816,-29.785
1789992422.174377,13.184,-39.062,114.258,-21.973
1789992422.177883,5.859,-41.016,100.586,-31.250
1789992422.181390,-15.137,-41.992,75.195,-22.949
1789992422.184896,-41.016,-41.504,57.129,-27.344
1789992422.188403,-4.883,-41.016,39.551,-42.480
1789992422.191909,7.324,-40.527,15.137,-21.973
1789992422.195416,-20.508,-41.504,7.324,-23.438
1789992422.198922,-19.531,-43.945,31.250,-34.668
1789992422.203433,0.000,-40.527,65.918,-19.531
1789992422.206949,0.000,-30.273,88.867,-5.859
1789992422.210465,0.000,-33.203,99.121,2.930
1789992422.213981,0.000,-49.316,94.238,-2.441
1789992422.217497,0.000,-51.270,78.613,0.488
1789992422.221012,0.000,-45.410,62.988,0.977
1789992422.224528,0.000,-38.086,54.688,-17.578
1789992422.228044,0.000,-33.691,51.758,-12.207
1789992422.231560,0.000,-35.645,41.992,-17.578
1789992422.235076,0.000,-39.062,41.992,-15.137
1789992422.238591,0.000,-37.109,29.297,-5.371
1789992422.242107,0.000,-31.738,-5.859,3.418
1789992422.246465,18.066,-33.203,-51.270,3.418
1789992422.249988,39.551,-35.156,-79.102,4.883
1789992422.253510,40.039,-39.062,-115.234,5.859
1789992422.257033,18.066,-45.898,-176.758,0.977
1789992422.260556,-19.043,-49.805,-203.125,-5.371
1789992422.264079,2.930,-50.781,-208.496,-0.977
1789992422.267602,32.227,-50.293,-242.188,4.883
1789992422.271125,4.883,-46.875,-311.523,-10.254
1789992422.274647,-6.836,-47.852,-350.098,-12.695
1789992422.278170,6.348,-50.781,-359.375,-12.207
1789992422.281693,34.668,-49.805,-368.164,2.930
1789992422.285216,8.301,-53.711,-363.281,5.371
1789992422.290920,0.000,-59.082,-345.215,-6.836
1789992422.294460,0.000,-62.012,-338.867,-4.395
1789992422.297999,0.000,-62.012,-309.570,-7.324
1789992422.301538,0.000,-56.641,-265.137,1.465
1789992422.305078,0.000,-52.734,-252.930,3.418
1789992422.308617,0.000,-58.105,-264.160,0.488
1789992422.312157,0.000,-60.059,-287.598,14.648
1789992422.315696,0.000,-58.105,-287.598,19.531
1789992422.319235,0.000,-58.105,-271.484,19.043
1789992422.322775,0.000,-61.523,-265.137,6.836
1789992422.326314,0.000,-59.570,-250.488,3.418
1789992422.329853,0.000,-58.105,-252.930,15.137
1789992422.335190,19.043,-60.547,-267.090,11.719
1789992422.338742,-6.348,-60.547,-267.578,-0.977
1789992422.342294,-19.531,-63.477,-254.883,-8.789
1789992422.345846,-2.930,-65.430,-220.703,11.230
1789992422.349397,-7.812,-63.477,-176.270,16.113
1789992422.352949,-41.992,-62.500,-163.086,-1.953
1789992422.356501,-53.223,-59.082,-171.875,19.531
1789992422.360053,4.395,-60.059,-170.898,24.414
1789992422.363605,22.949,-57.129,-166.016,16.113
1789992422.367157,-16.113,-54.688,-153.809,16.113
1789992422.370708,-31.738,-50.781,-148.926,4.395
1789992422.374260,-4.883,-41.504,-155.762,6.348
1789992422.379041,-18.555,-38.086,-164.551,16.602
1789992422.382600,-41.504,-39.062,-175.781,14.160
1789992422.386160,-41.016,-44.434,-196.777,11.719
1789992422.389720,-23.926,-42.969,-222.168,18.066
1789992422.393280,16.602,-35.645,-222.168,20.020
1789992422.396839,-3.418,-33.691,-227.051,21.484
1789992422.400399,-33.691,-35.156,-239.258,15.137
1789992422.403959,-33.203,-36.621,-229.980,17.578
1789992422.407518,-6.348,-40.527,-235.352,32.715
1789992422.411078,1.465,-45.898,-242.188,22.461
1789992422.414638,-26.367,-45.410,-224.609,12.695
1789992422.418197,-44.434,-38.574,-201.172,5.371
1789992422.424161,-6.348,-32.715,-176.270,28.809
1789992422.427735,13.184,-39.551,-173.340,47.852
1789992422.431309,-5.859,-44.922,-186.523,29.785
1789992422.434883,-51.270,-43.945,-199.219,21.484
1789992422.438457,-39.551,-42.480,-194.824,18.555
1789992422.442031,13.184,-48.828,-178.711,28.809
1789992422.445605,-11.719,-45.410,-165.527,18.555
1789992422.449179,-40.527,-36.621,-152.832,14.648
1789992422.452753,-20.020,-39.551,-165.527,21.484
1789992422.456327,15.137,-35.156,-176.758,22.461
1789992422.459901,-6.836,-37.598,-170.898,20.508
1789992422.463475,-36.133,-42.969,-175.781,19.531
1789992422.469930,-27.832,-40.527,-173.828,24.414
1789992422.473520,0.000,-44.922,-156.738,23.926
1789992422.477110,-4.395,-45.410,-145.020,20.508
1789992422.480700,-47.852,-44.434,-154.785,6.836
1789992422.484290,-64.941,-42.480,-168.457,-23.438
1789992422.487880,-21.973,-40.039,-167.480,-10.254
1789992422.491470,11.719,-43.945,-158.691,14.160
1789992422.495060,4.883,-47.852,-156.250,20.020
1789992422.498650,-9.277,-45.898,-156.250,30.762
1789992422.502240,-9.766,-41.016,-154.297,8.789
1789992422.505831,5.371,-35.156,-172.852,-0.977
1789992422.509420,-2.441,-36.133,-197.754,14.648
1789992422.515696,-14.160,-44.922,-208.984,9.277
1789992422.519300,5.371,-41.504,-210.449,8.789
1789992422.522904,23.926,-40.527,-205.078,16.602
1789992422.526508,17.578,-43.457,-222.656,10.742
1789992422.530112,-7.324,-40.039,-250.000,0.488
1789992422.533716,-17.090,-50.293,-237.305,-6.348
1789992422.537320,16.602,-56.152,-208.496,-0.488
1789992422.540924,14.648,-47.363,-188.477,9.766
1789992422.544528,-17.578,-43.945,-169.922,7.324
1789992422.548132,-24.902,-45.410,-144.531,12.207
1789992422.551736,6.836,-49.316,-132.812,12.207
1789992422.555340,18.555,-47.363,-123.535,-12.207
1789992422.561455,-11.719,-41.504,-105.957,0.977
1789992422.565071,-30.273,-45.410,-110.352,7.812
1789992422.568688,-17.578,-42.969,-106.445,-6.348
1789992422.572304,25.391,-38.574,-51.270,0.977
1789992422.575920,5.371,-41.992,-15.137,-2.441
1789992422.579537,-31.738,-39.551,-8.301,-25.391
1789992422.583153,-7.324,-40.527,5.371,-28.320
1789992422.586769,30.762,-43.457,11.719,-20.020
1789992422.590386,12.695,-38.086,11.230,-22.949
1789992422.594002,-32.227,-37.598,1.953,-21.973
1789992422.597618,-40.527,-48.828,-22.461,-20.020
1789992422.601235,2.441,-48.828,-26.367,-9.277
1789992422.607147,0.488,-39.551,-26.367,-9.277
1789992422.610774,-38.086,-41.992,-28.320,-7.324
1789992422.614400,-34.668,-41.504,-34.668,3.906
1789992422.618027,-10.742,-40.527,-32.227,5.859
1789992422.621654,12.207,-42.480,-26.367,12.207
1789992422.625281,-7.812,-42.969,-42.969,-2.441
1789992422.628908,-24.414,-45.898,-57.129,-20.996
1789992422.632535,-4.395,-46.387,-43.945,-12.207
1789992422.636162,-2.930,-37.109,-26.367,-15.137
1789992422.639789,-4.883,-43.945,-42.969,-4.883
1789992422.643416,-30.273,-55.664,-75.195,-9.277
1789992422.647043,-43.945,-51.270,-85.938,-21.484
1789992422.652771,0.977,-43.457,-89.355,-2.930
1789992422.656407,-10.742,-41.504,-130.371,-6.348
1789992422.660044,-58.105,-50.293,-188.477,-14.648
1789992422.663680,-50.781,-45.410,-214.844,-2.930
1789992422.667316,0.977,-44.922,-210.449,-2.441
1789992422.670952,19.043,-54.688,-205.566,0.000
1789992422.674588,-13.672,-54.688,-216.797,-3.418
1789992422.678224,-36.621,-50.293,-221.191,-13.184
1789992422.681861,-26.367,-49.316,-210.938,-20.996
1789992422.685497,-4.395,-53.711,-199.219,-18.555
1789992422.689133,-26.855,-64.941,-199.219,-19.043
1789992422.692769,-53.711,-73.242,-195.312,-20.020
1789992422.698359,-34.180,-72.266,-178.711,-8.301
1789992422.702003,-11.230,-67.871,-170.410,5.859
1789992422.705647,-33.203,-62.500,-169.434,10.254
1789992422.709291,-60.059,-61.035,-170.410,-1.953
1789992422.712936,-40.039,-61.523,-174.316,-10.254
1789992422.716580,0.977,-62.988,-171.875,-4.395
1789992422.720224,-6.836,-62.988,-170.898,14.648
1789992422.723869,-42.969,-63.477,-172.852,1.465
1789992422.727513,-62.500,-59.570,-154.785,-19.043
1789992422.731157,-31.250,-58.594,-141.602,0.977
1789992422.734802,-22.949,-58.105,-138.672,11.230
1789992422.738446,-31.738,-49.316,-122.070,2.930
1789992422.743884,-61.035,-46.387,-104.492,-10.742
1789992422.747535,-48.828,-45.410,-98.145,-11.230
1789992422.751187,0.000,-46.875,-99.609,19.043
1789992422.754838,-11.719,-49.805,-102.051,32.227
1789992422.758490,-22.461,-50.781,-106.445,18.066
1789992422.762141,-20.020,-46.875,-98.145,17.578
1789992422.765793,-5.859,-38.574,-73.242,36.133
1789992422.769444,-38.086,-42.480,-59.082,23.438
1789992422.773095,-84.961,-44.434,-44.922,11.719
1789992422.776747,-63.965,-47.363,-41.504,22.461
1789992422.780398,-21.484,-49.805,-47.363,20.508
1789992422.784050,-14.160,-50.781,-43.457,28.320
1789992422.790673,-43.945,-55.176,-35.156,11.719
1789992422.794336,-60.547,-51.758,-23.926,-10.254
1789992422.797999,-24.902,-46.387,4.395,-4.883
1789992422.801661,-6.348,-49.316,19.531,14.160
1789992422.805324,-23.438,-47.363,9.766,41.992
1789992422.808987,-53.223,-38.086,-8.301,35.645
1789992422.812649,-51.270,-38.574,-0.488,11.230
1789992422.816312,-14.648,-39.551,24.414,-1.953
1789992422.819975,-29.297,-40.527,20.020,2.441
1789992422.823637,-36.621,-43.457,11.230,14.160
1789992422.827300,-20.996,-47.363,12.207,21.973
1789992422.830963,0.000,-43.457,17.090,18.555
1789992422.837542,0.000,-35.645,0.000,20.020
1789992422.841216,0.000,-40.527,0.000,16.602
1789992422.844889,0.000,-40.527,0.000,4.883
1789992422.848562,0.000,-39.551,0.000,4.395
1789992422.852235,0.000,-41.992,0.000,10.254
1789992422.855909,0.000,-39.062,0.000,-0.977
1789992422.859582,0.000,-39.551,0.000,4.395
1789992422.863255,0.000,-39.551,0.000,5.859
1789992422.866928,0.000,-35.645,0.000,15.137
1789992422.870601,0.000,-39.062,0.000,36.133
1789992422.874275,0.000,-47.852,0.000,16.113
1789992422.877948,0.000,-44.434,0.000,2.930
1789992422.884183,-10.254,-41.992,18.555,5.859
1789992422.887865,-34.180,-45.898,33.203,12.695
1789992422.891547,-36.133,-41.504,38.086,15.137
1789992422.895229,-32.227,-49.805,53.711,9.766
1789992422.898911,-5.371,-47.363,58.105,8.789
1789992422.902593,-11.719,-37.598,50.781,8.789
1789992422.906276,-40.527,-38.086,43.945,1.953
1789992422.909958,-55.664,-36.133,23.438,-11.719
1789992422.913640,-30.762,-43.457,5.859,-20.020
1789992422.917322,-19.043,-46.387,5.859,-16.113
1789992422.921004,-41.992,-37.598,-0.977,-6.348
1789992422.924686,-66.406,-40.039,-13.184,-5.371
1789992422.930737,-43.945,-49.316,2.441,6.836
1789992422.934427,1.465,-48.828,7.812,9.766
1789992422.938117,-20.508,-46.387,-12.207,2.930
1789992422.941807,-50.293,-48.340,-39.551,2.930
1789992422.945497,-27.344,-45.898,-54.688,2.930
1789992422.949187,3.418,-41.016,-46.387,14.648
1789992422.952877,-9.277,-50.781,-42.480,14.160
1789992422.956567,-39.062,-61.035,-48.828,0.488
1789992422.960257,-42.480,-57.617,-45.410,-5.859
1789992422.963947,-13.672,-52.734,-34.668,9.277
1789992422.967637,12.207,-49.316,-44.434,12.695
1789992422.971327,9.766,-40.527,-50.293,10.742
1789992422.977193,-44.922,-40.527,-42.480,18.066
1789992422.980890,-12.207,-53.711,-38.574,14.648
1789992422.984587,5.371,-61.035,-38.086,1.953
1789992422.988284,-34.668,-57.617,-36.133,-8.301
1789992422.991981,-21.484,-59.082,-27.832,5.859
1789992422.995678,-4.883,-62.012,-11.719,5.859
1789992422.999375,22.461,-58.105,-10.254,-0.977
1789992423.003072,19.531,-56.152,-22.949,-1.953
1789992423.006769,-14.160,-55.664,-17.578,-16.602
1789992423.010466,-14.160,-56.641,-11.230,-20.020
1789992423.014163,25.879,-50.293,-10.254,9.766
1789992423.017860,18.555,-45.898,-7.324,4.883
1789992423.023552,-11.230,-50.781,2.930,-21.973
1789992423.027255,-18.555,-54.199,8.301,-18.066
1789992423.030958,8.789,-49.316,6.836,0.977
1789992423.034661,14.648,-50.781,8.301,4.395
1789992423.038364,-23.926,-51.758,11.719,0.977
1789992423.042068,-40.527,-49.805,20.996,2.441
1789992423.045771,-0.977,-49.805,11.230,9.277
1789992423.049474,20.508,-40.039,-21.973,10.742
1789992423.053177,-23.926,-35.645,-20.020,17.578
1789992423.056880,-47.363,-37.598,-10.742,8.301
1789992423.060583,-16.602,-37.598,-50.781,11.719
1789992423.064286,11.230,-34.668,-119.141,25.391
1789992423.069826,1.465,-30.762,-159.668,-1.953
1789992423.073535,-27.344,-40.527,-163.086,-2.930
1789992423.077244,-19.531,-49.316,-156.250,3.418
1789992423.080952,17.578,-37.598,-135.742,-7.324
1789992423.084661,17.578,-30.273,-117.676,1.465
1789992423.088369,6.348,-34.668,-118.164,16.113
1789992423.092078,21.973,-29.785,-128.418,27.832
1789992423.095787,51.758,-27.832,-132.812,30.762
1789992423.099495,48.828,-35.156,-146.484,20.996
1789992423.103204,15.137,-35.645,-156.738,18.555
1789992423.106913,-5.859,-40.527,-139.648,13.184
1789992423.110621,7.812,-35.645,-84.473,16.602
1789992423.117102,20.020,-34.180,-40.039,6.348
1789992423.120819,5.371,-40.039,-31.738,-18.066
1789992423.124535,1.953,-41.992,-19.043,2.441
1789992423.128252,28.320,-41.992,-2.930,10.742
1789992423.131968,52.734,-34.180,14.160,11.719
1789992423.135685,43.457,-31.250,21.973,32.227
1789992423.139402,17.090,-33.691,35.156,9.277
1789992423.143118,9.277,-33.203,52.246,0.000
1789992423.146835,48.828,-32.715,46.875,18.066
1789992423.150552,54.199,-35.645,19.531,14.648
1789992423.154268,23.438,-35.156,-15.137,1.953
1789992423.157985,11.719,-38.086,-26.855,7.324
1789992423.164239,30.762,-38.574,-29.297,18.555
1789992423.167963,31.250,-38.086,-41.504,10.254
1789992423.171686,19.043,-37.109,-60.547,9.277
1789992423.175410,2.930,-39.062,-81.055,3.418
1789992423.179134,16.602,-37.598,-88.379,-10.742
1789992423.182858,47.363,-38.574,-88.867,33.691
1789992423.186581,9.277,-48.340,-89.355,45.410
1789992423.190305,-18.066,-40.527,-68.848,8.789
1789992423.194028,32.227,-28.320,-61.523,27.832
1789992423.197752,60.547,-32.715,-59.082,45.410
1789992423.201476,10.742,-39.062,-45.410,14.160
1789992423.205199,-19.531,-41.992,-41.504,-0.977
1789992423.211161,-14.648,-49.805,-12.695,15.625
1789992423.214890,6.348,-45.898,24.902,23.926
1789992423.218620,9.277,-49.316,49.805,14.648
1789992423.222350,-14.160,-59.082,61.523,8.789
1789992423.226079,-18.555,-63.965,54.688,-0.488
1789992423.229809,24.414,-64.941,32.715,18.066
1789992423.233539,32.227,-62.988,0.000,24.414
1789992423.237268,-4.395,-65.430,-32.227,16.602
1789992423.240998,-22.949,-73.242,-62.012,31.250
1789992423.244728,-0.977,-71.777,-63.965,39.062
1789992423.248457,19.531,-66.895,-50.781,30.273
1789992423.252187,7.324,-71.289,-50.781,24.902
1789992423.258113,-13.184,-71.777,-62.988,29.297
1789992423.261848,-7.324,-66.406,-72.266,32.715
1789992423.265584,33.203,-62.012,-78.613,32.227
1789992423.269319,22.949,-58.594,-85.938,35.156
1789992423.273055,-14.160,-60.059,-96.680,40.527
1789992423.276790,-23.438,-60.059,-119.141,17.578
1789992423.280525,22.949,-53.223,-123.535,9.277
1789992423.284261,40.039,-49.805,-119.629,33.203
1789992423.287996,14.160,-44.434,-115.234,43.457
1789992423.291732,-5.371,-40.039,-101.562,40.039
1789992423.295467,32.715,-41.016,-86.914,22.949
1789992423.299202,49.805,-44.434,-88.379,31.738
1789992423.304854,14.648,-40.527,-102.051,39.062
1789992423.308594,-1.465,-32.715,-99.609,23.926
1789992423.312335,21.973,-31.738,-93.750,23.926
1789992423.316075,52.734,-35.156,-92.285,34.180
1789992423.319815,40.039,-41.016,-87.402,40.527
1789992423.323555,14.648,-43.457,-86.426,42.480
1789992423.327295,12.695,-35.156,-93.750,34.180
1789992423.331036,46.387,-34.180,-104.980,40.527
1789992423.334776,43.457,-42.480,-111.816,48.828
1789992423.338516,8.301,-43.945,-98.145,21.973
1789992423.342256,3.418,-53.223,-85.938,4.883
1789992423.345996,34.180,-62.500,-93.262,15.137
1789992423.351649,40.527,-61.035,-109.375,23.438
1789992423.355394,15.137,-59.570,-105.469,17.090
1789992423.359138,6.836,-59.082,-79.590,9.277
1789992423.362883,30.762,-54.199,-47.363,4.883
1789992423.366628,36.133,-47.363,-27.832,17.578
1789992423.370373,22.461,-53.223,-23.438,3.906
1789992423.374118,18.555,-50.781,-22.949,-8.301
1789992423.377863,19.043,-45.410,-25.391,13.184
1789992423.381608,41.016,-53.711,-33.203,-0.488
1789992423.385353,41.504,-56.152,-29.297,-17.090
1789992423.389098,3.906,-52.734,-20.508,-5.371
1789992423.392843,8.789,-49.805,-9.766,0.977
1789992423.398307,0.000,-48.340,2.441,10.742
1789992423.402056,0.000,-48.828,-2.930,6.348
1789992423.405805,0.000,-41.504,-11.230,-6.836
1789992423.409554,0.000,-36.133,-12.207,9.766
1789992423.413303,0.000,-42.969,1.953,48.828
1789992423.417052,0.000,-36.133,5.859,37.109
1789992423.420801,0.000,-28.809,-10.742,0.488
1789992423.424550,0.000,-27.832,-14.648,-13.184
1789992423.428299,0.000,-23.926,0.000,-21.484
1789992423.432048,0.000,-19.043,-1.953,-5.371
1789992423.435797,0.000,-5.859,-30.273,-3.906
1789992423.439546,0.000,-5.859,-62.012,-9.277
1789992423.444827,-12.207,-14.648,-67.383,-8.789
1789992423.448580,16.602,-13.184,-70.801,-5.859
1789992423.452332,3.418,-15.625,-99.121,4.395
1789992423.456085,-24.902,-20.020,-120.117,-4.395
1789992423.459837,-25.879,-23.926,-131.348,-29.297
1789992423.463590,9.277,-25.879,-135.742,-9.277
1789992423.467342,15.137,-22.949,-141.602,3.906
1789992423.471095,-8.789,-29.785,-140.625,-6.348
1789992423.474848,-26.367,-35.645,-128.418,-11.719
1789992423.478600,0.977,-30.762,-117.676,-18.555
1789992423.482353,4.883,-27.344,-116.211,-4.883
1789992423.486105,-28.320,-33.203,-122.070,-2.441
1789992423.492089,-33.203,-42.969,-127.441,-7.812
1789992423.495847,-2.441,-40.527,-118.164,16.602
1789992423.499604,6.836,-41.992,-105.469,21.973
1789992423.503362,-27.832,-44.434,-92.285,5.371
1789992423.507119,-46.387,-39.551,-84.961,1.465
1789992423.510877,-24.902,-38.086,-77.637,5.371
1789992423.514635,7.812,-36.621,-48.828,5.859
1789992423.518392,-3.906,-37.109,-19.531,-6.348
1789992423.522150,-46.875,-41.016,-19.531,-15.137
1789992423.525907,-59.570,-45.898,-19.531,-10.742
1789992423.529665,-23.926,-41.992,-13.184,4.395
1789992423.533422,-2.930,-31.250,-20.996,13.184
1789992423.539357,-11.719,-35.645,0.000,13.184
1789992423.543119,-31.738,-47.363,0.000,12.207
1789992423.546882,-10.742,-45.410,0.000,8.789
1789992423.550644,5.859,-37.109,0.000,11.230
1789992423.554407,-19.043,-36.621,0.000,2.441
1789992423.558169,-42.969,-40.039,0.000,0.488
1789992423.561931,-25.879,-38.086,0.000,11.230
1789992423.565694,1.465,-39.551,0.000,27.344
1789992423.569456,-20.996,-48.828,0.000,20.020
1789992423.573218,-48.828,-46.875,0.000,3.418
1789992423.576981,-31.738,-37.109,0.000,-3.418
1789992423.580743,5.859,-31.250,0.000,-0.977
1789992423.586335,-2.441,-35.156,-28.320,3.418
1789992423.590101,-37.598,-41.992,-17.578,6.348
1789992423.593867,-20.996,-30.273,-14.160,19.531
1789992423.597633,11.719,-26.367,-14.160,24.414
1789992423.601400,2.930,-34.668,-13.672,23.438
1789992423.605166,-6.836,-42.969,-18.066,-2.441
1789992423.608932,-13.672,-45.898,-17.578,-19.531
1789992423.612699,4.883,-41.504,-4.883,2.930
1789992423.616465,9.766,-41.504,12.207,22.461
1789992423.620231,-20.996,-36.133,27.832,19.043
1789992423.623997,-34.180,-31.738,33.203,10.742
1789992423.627764,-16.113,-35.645,47.852,1.953
1789992423.633194,4.395,-38.086,65.918,-5.859
1789992423.636964,2.930,-41.992,74.707,-0.488
1789992423.640734,-22.949,-48.340,88.867,2.441
1789992423.644503,-24.414,-50.293,106.934,4.883
1789992423.648273,20.996,-43.945,116.211,14.160
1789992423.652043,17.578,-42.480,107.910,10.742
1789992423.655813,-26.367,-38.574,104.492,0.488
1789992423.659582,-43.457,-40.527,103.027,9.277
1789992423.663352,0.488,-49.316,98.145,19.531
1789992423.667122,12.207,-47.852,97.168,6.348
1789992423.670892,-26.855,-51.758,89.355,3.906
1789992423.674661,-41.016,-54.688,69.824,-13.672
1789992423.679993,-4.883,-48.828,64.453,-30.273
1789992423.683766,11.230,-42.969,69.824,0.488
1789992423.687539,-13.184,-50.781,63.965,20.508
1789992423.691312,-36.621,-57.617,63.477,0.977
1789992423.695085,-19.043,-45.898,64.453,-2.930
1789992423.698858,23.926,-48.828,44.922,19.043
1789992423.702631,5.371,-53.711,25.879,11.719
1789992423.706403,-12.207,-50.293,20.508,14.648
1789992423.710176,-20.020,-46.387,17.090,14.648
1789992423.713949,-7.324,-44.922,23.438,-0.488
1789992423.717722,5.371,-52.246,25.391,17.578
1789992423.721495,-11.719,-54.688,20.508,23.438
1789992423.726703,-27.832,-53.223,15.137,-5.371
1789992423.730479,-1.465,-49.805,20.020,-1.465
1789992423.734255,6.348,-47.852,28.320,4.883
1789992423.738031,-25.879,-46.387,25.879,-0.977
1789992423.741806,-19.043,-46.387,23.926,-2.930
1789992423.745582,15.625,-48.828,24.902,10.254
1789992423.749358,31.250,-54.199,4.395,24.414
1789992423.753134,17.090,-61.035,-21.484,20.020
1789992423.756909,-15.625,-57.129,-45.898,3.906
1789992423.760685,-32.227,-44.434,-73.730,-5.859
1789992423.764461,4.883,-48.828,-90.820,6.836
1789992423.768237,23.926,-51.270,-128.418,20.996
1789992423.773330,-3.418,-45.410,-164.551,2.441
1789992423.777108,-21.973,-48.828,-169.434,-14.648
1789992423.780886,15.625,-43.945,-158.203,13.672
1789992423.784665,17.578,-43.457,-145.996,12.207
1789992423.788443,-17.090,-52.246,-132.812,-22.949
1789992423.792221,-31.738,-53.223,-124.512,-26.367
1789992423.796000,-0.977,-42.969,-106.934,7.324
1789992423.799778,10.254,-33.203,-87.402,31.250
1789992423.803556,-23.438,-37.598,-81.543,27.832
1789992423.807334,-22.949,-41.504,-66.895,15.625
1789992423.811113,-6.836,-34.180,-38.574,13.184
1789992423.814891,4.395,-36.133,-29.297,36.621
1789992423.819834,-8.301,-40.527,-42.480,24.902
1789992423.823615,-38.574,-44.922,-40.039,6.348
1789992423.827395,-39.062,-53.223,-28.320,1.465
1789992423.831176,0.488,-50.293,-31.738,7.812
1789992423.834956,-11.230,-47.363,-45.410,19.043
1789992423.838737,-36.621,-55.664,-63.477,8.789
1789992423.842517,-46.387,-83.008,-60.059,0.977
1789992423.846298,-36.133,-105.957,-44.434,0.488
1789992423.850078,-21.484,-110.840,-55.664,10.254
1789992423.853859,-23.926,-111.816,-76.660,3.906
1789992423.857639,-40.039,-104.980,-74.707,-4.395
1789992423.861420,-22.949,-100.586,-52.246,-7.812
1789992423.866282,-7.324,-102.539,-46.387,-16.602
1789992423.870065,-12.695,-100.586,-53.711,-11.230
1789992423.873847,-28.809,-100.098,-51.270,-8.301
1789992423.877630,-22.949,-97.168,-44.922,-20.508
1789992423.881413,2.930,-86.914,-48.828,-20.020
1789992423.885195,-11.719,-86.914,-60.059,3.418
1789992423.888978,-19.043,-88.867,-66.895,9.766
1789992423.892760,-34.180,-87.891,-68.359,-14.160
1789992423.896543,-15.137,-88.867,-54.688,-29.785
1789992423.900325,-3.906,-84.961,-49.805,-18.555
1789992423.904108,-44.434,-91.309,-57.129,-9.766
1789992423.907890,-63.477,-93.262,-47.363,-8.301
1789992423.913439,-15.625,-80.566,-25.391,15.137
1789992423.917225,-21.973,-84.961,-24.902,11.230
1789992423.921011,-64.453,-91.797,-28.320,0.000
1789992423.924796,-60.547,-88.867,-25.879,7.324
1789992423.928582,-32.715,-85.449,-28.320,5.859
1789992423.932368,-14.160,-86.914,-26.855,12.695
1789992423.936153,-44.434,-95.215,-27.832,18.066
1789992423.939939,-46.387,-89.844,-36.621,13.184
1789992423.943725,-17.578,-80.566,-38.574,10.742
1789992423.947511,4.395,-77.148,-20.996,13.184
1789992423.951296,-20.508,-74.219,-6.836,-10.742
1789992423.955082,-35.156,-76.172,2.930,-16.602
1789992423.960488,-10.254,-70.801,18.066,6.836
1789992423.964276,18.555,-62.012,31.250,20.508
1789992423.968065,3.906,-59.570,41.992,13.672
1789992423.971853,-15.137,-63.965,43.945,-19.043
1789992423.975642,-29.785,-59.570,43.457,-23.926
1789992423.979431,-13.672,-47.363,43.945,-14.648
1789992423.983219,-7.324,-49.805,45.410,-12.207
1789992423.987008,-21.973,-58.594,52.734,-11.230
1789992423.990797,-30.273,-60.547,60.547,-0.977
1789992423.994585,-8.301,-63.477,71.777,3.906
1789992423.998374,13.672,-64.941,85.938,-14.160
1789992424.002162,-2.930,-66.895,84.961,-1.465
1789992424.007543,-29.297,-71.777,79.590,-1.953
1789992424.011335,-28.320,-75.684,87.891,1.953
1789992424.015126,7.324,-73.242,95.215,39.551
1789992424.018917,-2.441,-74.219,89.355,34.668
1789992424.022709,-27.832,-80.078,89.844,29.297
1789992424.026500,-28.809,-78.125,90.820,37.109
1789992424.030291,-3.418,-80.566,87.402,27.832
1789992424.034083,-10.742,-87.402,87.402,30.762
1789992424.037874,-40.039,-85.938,72.266,41.992
1789992424.041666,-53.711,-84.473,68.359,21.484
1789992424.045457,-17.090,-82.031,60.059,16.113
1789992424.049248,-9.277,-81.055,44.434,35.156
1789992424.054459,-38.086,-83.496,48.828,19.043
1789992424.058253,-48.828,-80.566,60.547,-3.906
1789992424.062046,-27.832,-78.613,64.453,-6.836
1789992424.065840,2.441,-70.801,58.105,16.602
1789992424.069634,-20.996,-68.359,51.270,15.625
1789992424.073428,-31.250,-70.312,51.758,3.906
1789992424.077221,-24.414,-64.453,51.270,3.906
1789992424.081015,-5.371,-60.059,59.570,5.859
1789992424.084809,2.930,-52.246,86.426,-6.348
1789992424.088603,-22.461,-51.270,104.492,-11.719
1789992424.092396,-18.555,-57.129,110.840,-5.859
1789992424.096190,37.598,-54.199,122.070,-7.812
1789992424.101330,14.160,-51.270,136.719,-3.906
1789992424.105126,-30.273,-54.199,139.648,-8.789
1789992424.108922,-21.973,-51.758,136.230,-8.789
1789992424.112718,17.090,-50.293,137.207,-6.836
1789992424.116514,15.137,-54.688,135.742,-2.930
1789992424.120310,-15.625,-55.176,126.465,-9.766
1789992424.124106,-27.832,-53.711,105.469,-25.391
1789992424.127902,-1.953,-53.223,107.422,9.277
1789992424.131698,19.531,-50.781,137.695,25.391
1789992424.135494,0.977,-46.875,152.344,-0.977
1789992424.139290,-19.043,-43.945,140.625,2.441
1789992424.143086,-31.738,-41.016,131.836,22.949
1789992424.148101,-0.977,-38.086,147.949,39.551
1789992424.151899,2.930,-40.527,175.781,41.992
1789992424.155697,-20.020,-42.480,192.383,21.484
1789992424.159495,-15.137,-41.016,191.406,29.297
1789992424.163293,21.973,-43.945,196.777,37.109
1789992424.167091,8.789,-34.668,210.449,18.555
1789992424.170889,-10.742,-27.344,209.961,46.387
1789992424.174687,-0.977,-30.762,208.008,48.828
1789992424.178485,14.648,-30.273,208.008,17.090
1789992424.182283,7.812,-26.855,197.266,20.508
1789992424.186081,-6.836,-26.367,187.988,15.625
1789992424.189879,-33.691,-38.086,187.988,0.977
1789992424.194754,-20.020,-39.062,186.035,4.883
1789992424.198554,35.645,-29.297,177.734,24.414
1789992424.202354,3.906,-34.668,173.828,25.879
1789992424.206154,-37.598,-44.434,162.109,0.977
1789992424.209953,-39.062,-52.734,153.320,-19.531
1789992424.213753,-9.277,-58.594,163.574,-5.371
1789992424.217553,-21.484,-58.594,162.598,15.625
1789992424.221352,-38.086,-47.852,150.879,8.789
1789992424.225152,-29.785,-43.945,148.926,8.789
1789992424.228952,-12.695,-47.363,157.227,25.879
1789992424.232752,0.977,-49.805,146.484,26.855
1789992424.236551,-11.230,-52.246,130.371,16.113
1789992424.242006,-21.484,-48.340,126.953,16.113
1789992424.245808,-2.441,-42.969,127.441,23.926
1789992424.249610,6.836,-42.969,134.277,30.762
1789992424.253413,-5.371,-45.410,125.000,24.902
1789992424.257215,-25.391,-45.898,114.258,3.906
1789992424.261017,-16.602,-45.898,114.746,7.812
1789992424.264820,7.812,-37.109,104.004,23.438
1789992424.268622,-1.465,-37.109,86.426,28.320
1789992424.272424,-23.926,-44.434,73.242,21.973
1789992424.276227,-26.855,-48.340,63.477,1.953
1789992424.280029,-0.977,-41.992,55.664,2.441
1789992424.283831,-11.719,-44.434,26.855,0.000
1789992424.289240,0.000,-53.223,0.000,-0.488
1789992424.293045,0.000,-49.805,0.488,5.859
1789992424.296849,0.000,-46.387,22.949,4.395
1789992424.300654,0.000,-46.875,48.828,7.324
1789992424.304459,0.000,-47.852,64.453,11.719
1789992424.308264,0.000,-51.758,78.613,-4.883
1789992424.312069,0.000,-47.852,82.520,-13.184
1789992424.315873,0.000,-41.504,81.055,6.348
1789992424.319678,0.000,-44.922,101.074,20.020
1789992424.323483,0.000,-41.992,124.023,14.160
1789992424.327288,0.000,-37.598,121.582,-2.441
1789992424.331093,0.000,-36.621,119.629,6.348
1789992424.336362,9.766,-36.133,122.559,16.113
1789992424.340169,-16.602,-41.992,112.305,7.812
1789992424.343976,-21.484,-43.457,90.332,-1.953
1789992424.347783,0.000,-42.480,90.820,0.000
1789992424.351590,10.742,-50.293,98.633,8.789
1789992424.355397,-14.160,-56.152,101.562,12.207
1789992424.359204,-35.645,-57.617,97.168,6.836
1789992424.363011,3.906,-50.781,90.332,5.371
1789992424.366818,22.461,-46.387,81.055,13.184
1789992424.370625,-7.812,-47.852,74.219,25.879
1789992424.374433,-5.371,-45.410,67.871,16.602
1789992424.378239,16.113,-48.828,71.289,7.812
1789992424.383425,0.000,-45.410,69.824,3.906
1789992424.387234,0.000,-34.180,51.270,2.930
1789992424.391044,0.000,-42.969,30.273,-10.742
1789992424.394853,0.000,-49.316,12.207,-19.531
1789992424.398662,0.000,-41.504,9.277,2.930
1789992424.402471,0.000,-40.527,11.719,24.414
1789992424.406280,0.000,-40.527,10.254,16.113
1789992424.410089,0.000,-37.109,34.668,-6.348
1789992424.413898,0.000,-32.715,80.078,10.742
1789992424.417707,0.000,-29.785,96.680,11.719
1789992424.421516,0.000,-30.273,92.773,7.812
1789992424.425325,0.000,-31.250,80.566,18.066
1789992424.430319,2.441,-37.109,61.523,16.113
1789992424.434129,12.695,-39.551,43.457,20.020
1789992424.437940,-18.555,-40.039,37.598,6.348
1789992424.441751,-42.480,-41.016,36.621,-8.301
1789992424.445562,-9.277,-37.598,47.363,1.465
1789992424.449373,14.648,-40.039,48.828,4.883
1789992424.453183,-27.344,-45.410,40.527,24.902
1789992424.456994,-40.039,-52.246,37.598,30.273
1789992424.460805,-12.695,-52.246,47.363,6.836
1789992424.464616,7.812,-45.410,59.570,3.906
1789992424.468427,-8.301,-47.363,56.641,4.395
1789992424.472237,-38.086,-57.129,59.082,-2.441
1789992424.477187,-47.363,-59.082,73.730,-1.953
1789992424.481000,-12.207,-51.758,89.355,7.812
1789992424.484812,-9.277,-59.082,86.426,9.766
1789992424.488625,-45.898,-65.918,78.613,-7.324
1789992424.492437,-65.918,-62.988,74.219,-0.977
1789992424.496250,-14.160,-55.664,67.871,11.230
1789992424.500062,16.602,-53.711,61.035,11.719
1789992424.503875,-16.113,-61.523,54.199,12.695
1789992424.507687,-36.621,-56.641,47.363,3.418
1789992424.511499,-19.531,-57.617,40.527,-2.930
1789992424.515312,0.488,-62.012,35.156,-2.441
1789992424.519124,-7.812,-57.129,21.973,7.812
1789992424.523931,-19.043,-53.711,12.207,5.859
1789992424.527745,-22.461,-50.293,19.531,0.488
1789992424.531559,15.625,-42.480,33.691,20.020
1789992424.535372,0.977,-42.480,38.574,12.207
1789992424.539186,-34.180,-45.898,33.691,5.371
1789992424.543000,-34.668,-46.387,28.809,9.766
1789992424.546814,-7.324,-50.781,41.504,19.043
1789992424.550628,-4.883,-46.875,55.176,28.809
1789992424.554442,-35.645,-40.527,58.594,12.207
1789992424.558256,-42.969,-46.875,50.293,14.648
1789992424.562069,-29.297,-50.293,50.293,20.996
1789992424.565883,-17.090,-53.711,47.363,1.465
1789992424.570657,-22.461,-50.781,42.480,7.324
1789992424.574472,-43.457,-43.457,39.551,17.090
1789992424.578288,-34.180,-48.340,39.551,1.953
1789992424.582103,7.812,-47.852,57.617,13.672
1789992424.585918,-13.184,-48.340,56.641,10.254
1789992424.589733,-41.504,-55.664,47.852,-6.348
1789992424.593548,-43.945,-53.711,45.410,6.836
1789992424.597363,0.977,-41.504,48.340,15.137
1789992424.601179,7.324,-38.574,53.711,4.883
1789992424.604994,-28.320,-43.457,56.641,-11.230
1789992424.608809,-27.344,-44.434,64.453,-4.883
1789992424.612624,20.020,-41.992,79.102,7.812
1789992424.617267,32.715,-41.504,82.031,5.371
1789992424.621084,14.648,-54.199,74.219,9.277
1789992424.624900,4.395,-52.734,70.312,-0.977
1789992424.628716,7.812,-43.457,70.801,4.395
1789992424.632533,22.461,-51.758,71.289,22.949
1789992424.636349,16.602,-55.176,69.824,20.508
1789992424.640165,-2.441,-53.711,64.941,9.766
1789992424.643982,-28.320,-46.875,56.641,-16.602
1789992424.647798,-2.441,-48.340,56.641,-24.902
1789992424.651614,4.883,-59.082,46.387,1.465
1789992424.655431,-16.602,-57.129,19.531,-1.953
1789992424.659247,-28.809,-62.988,11.230,-15.137
1789992424.664435,-1.465,-60.059,13.184,7.324
1789992424.668253,7.812,-53.223,-1.465,13.672
1789992424.672071,-27.344,-51.758,-15.625,-17.578
1789992424.675890,-38.574,-48.340,-17.090,-7.324
1789992424.679708,-1.465,-51.270,-20.020,18.066
1789992424.683526,7.324,-45.898,-36.621,1.465
1789992424.687344,-14.160,-42.480,-43.457,-2.930
1789992424.691162,-27.832,-44.922,-41.992,-6.348
1789992424.694980,-6.836,-41.016,-39.062,0.000
1789992424.698799,30.273,-36.621,-35.645,8.789
1789992424.702617,10.742,-38.086,-30.762,1.465
1789992424.706435,-15.137,-49.805,-19.043,-11.719
1789992424.711543,0.000,-57.129,-12.695,-6.348
1789992424.715363,0.000,-49.316,-10.254,22.461
1789992424.719183,0.000,-42.480,-8.789,13.184
1789992424.723003,0.000,-46.875,-16.602,-16.113
1789992424.726823,0.000,-54.199,-28.320,-19.531
1789992424.730643,0.000,-57.129,-28.320,-10.254
1789992424.734462,0.000,-58.105,-26.855,3.906
1789992424.738282,0.000,-56.641,-28.809,5.859
1789992424.742102,0.000,-57.129,-33.203,18.555
1789992424.745922,0.000,-56.152,-12.695,26.367
1789992424.749742,0.000,-51.758,-2.930,17.090
1789992424.753562,0.000,-50.293,-29.297,4.395
1789992424.758493,-28.320,-52.734,-34.180,-1.953
1789992424.762315,-23.438,-59.570,-27.832,15.137
1789992424.766136,-17.090,-61.523,-28.320,6.348
1789992424.769957,-20.508,-61.523,-27.344,-3.906
1789992424.773779,-34.668,-53.223,-32.227,1.465
1789992424.777600,-30.273,-53.223,-32.715,9.277
1789992424.781421,6.348,-58.105,-17.578,18.066
1789992424.785243,5.859,-58.594,-2.930,18.555
1789992424.789064,-14.160,-61.523,-7.812,4.883
1789992424.792885,-24.902,-57.617,-9.766,-8.789
1789992424.796706,2.441,-53.223,-1.465,0.977
1789992424.800528,17.090,-50.781,7.812,6.348
1789992424.805373,-3.418,-52.246,17.090,1.953
1789992424.809196,-26.367,-53.711,22.949,4.883
1789992424.813019,-9.277,-51.270,20.508,-2.930
1789992424.816841,15.137,-48.828,18.066,1.465
1789992424.820664,-15.625,-42.969,10.742,0.977
1789992424.824486,-36.133,-47.363,15.137,-19.531
1789992424.828309,-13.184,-49.805,28.809,-23.926
1789992424.832132,35.156,-42.480,26.855,9.766
1789992424.835954,17.578,-45.898,19.043,27.832
1789992424.839777,-16.602,-52.734,20.996,8.789
1789992424.843600,-7.812,-49.805,25.391,1.465
1789992424.847422,13.672,-45.898,37.109,5.859
1789992424.852211,5.371,-49.805,48.340,8.301
1789992424.856034,-24.414,-61.035,47.852,-11.719
1789992424.859858,-39.062,-64.941,34.180,-16.113
1789992424.863682,13.184,-57.617,23.926,-0.488
1789992424.867506,14.160,-50.293,16.602,-10.254
1789992424.871330,-23.438,-54.199,0.488,-6.836
1789992424.875154,-12.207,-60.547,-2.441,4.395
1789992424.878978,10.254,-55.664,3.906,6.348
1789992424.882801,13.672,-44.434,10.254,4.883
1789992424.886625,-1.465,-46.387,-2.930,6.348
1789992424.890449,-11.230,-56.641,-20.508,8.789
1789992424.894273,-23.438,-53.711,-26.367,-2.441
1789992424.898986,0.488,-48.828,0.000,1.465
1789992424.902811,10.254,-47.852,0.000,14.160
1789992424.906636,-11.230,-45.410,0.000,6.836
1789992424.910460,-14.648,-51.270,0.000,-15.137
1789992424.914285,25.879,-49.316,0.000,2.441
1789992424.918110,28.320,-48.340,0.000,17.090
1789992424.921935,-9.277,-57.617,0.000,8.301
1789992424.925760,-20.020,-51.758,0.000,1.953
1789992424.929585,4.395,-47.852,0.000,2.930
1789992424.933410,20.996,-52.734,0.000,10.742
1789992424.937235,-1.465,-55.664,0.000,-3.418
1789992424.941060,-33.691,-55.176,0.000,-6.836
1789992424.945686,-20.020,-50.293,88.867,-1.465
1789992424.949512,19.531,-50.781,89.844,4.395
1789992424.953337,4.395,-52.734,80.566,20.508
1789992424.957163,-11.719,-52.734,71.777,21.973
1789992424.960989,-9.766,-47.852,70.801,11.230
1789992424.964815,16.113,-47.852,75.195,3.418
1789992424.968641,5.371,-53.711,79.590,13.184
1789992424.972467,-15.137,-50.781,69.824,27.344
1789992424.976293,-21.484,-40.039,53.223,24.902
1789992424.980119,17.090,-41.016,48.340,39.551
1789992424.983945,52.734,-45.898,46.875,51.270
1789992424.987771,20.020,-38.574,44.434,21.973
1789992424.992314,6.836,-39.551,32.715,-3.906
1789992424.996141,41.504,-46.875,16.113,1.953
1789992424.999968,41.992,-52.734,1.465,13.672
1789992425.003795,14.160,-53.223,-15.137,3.418
1789992425.007621,-8.789,-43.945,-27.344,-9.766
1789992425.011448,-5.859,-37.598,-28.809,-8.301
1789992425.015275,35.156,-37.109,-20.996,19.531
1789992425.019102,15.625,-44.434,-34.668,14.160
1789992425.022928,-16.602,-50.781,-65.430,9.766
1789992425.026755,-5.371,-46.875,-81.055,13.672
1789992425.030582,22.461,-36.621,-72.754,20.996
1789992425.034409,29.785,-44.922,-52.734,22.461
1789992425.039464,3.418,-49.805,-37.598,5.371
1789992425.043293,-17.578,-48.828,-34.668,-11.719
1789992425.047121,-3.418,-53.223,-31.250,-11.719
1789992425.050949,6.348,-43.945,-26.367,0.977
1789992425.054777,1.953,-42.480,-27.344,-1.465
1789992425.058605,-16.602,-47.363,-35.156,-6.348
1789992425.062434,19.043,-39.551,-23.926,0.977
1789992425.066262,43.945,-34.180,-10.742,6.348
1789992425.070090,11.719,-32.715,-18.555,10.742
1789992425.073919,-10.742,-39.551,-39.062,11.230
1789992425.077747,-6.836,-47.363,-47.363,1.465
1789992425.081575,15.625,-47.363,-41.992,8.301
1789992425.086532,18.066,-47.363,-37.598,16.602
1789992425.090362,-3.906,-45.898,-33.691,-16.113
1789992425.094192,6.348,-45.898,-31.738,-27.832
1789992425.098021,28.809,-48.828,-37.109,-9.766
1789992425.101851,10.254,-60.059,-55.664,-7.812
1789992425.105680,-13.184,-60.059,-65.918,-11.230
1789992425.109510,-18.066,-48.828,-64.941,-4.883
1789992425.113339,12.207,-53.711,-59.082,10.254
1789992425.117169,36.621,-63.965,-52.246,9.766
1789992425.120999,18.555,-64.453,-60.547,3.418
1789992425.124828,-2.930,-61.035,-73.730,-14.160
1789992425.128658,28.320,-57.129,-76.172,-5.859
1789992425.133540,31.250,-41.504,-74.707,13.184
1789992425.137370,4.395,-36.621,-80.078,3.418
1789992425.141201,-17.090,-55.664,-84.473,0.977
1789992425.145032,1.465,-60.059,-68.848,20.996
1789992425.148863,34.668,-51.270,-39.062,21.484
1789992425.152694,-2.441,-51.758,-11.230,-5.859
1789992425.156524,-19.043,-53.711,7.812,5.371
1789992425.160355,-22.949,-56.152,11.230,1.953
1789992425.164186,9.277,-58.594,20.996,10.742
1789992425.168017,29.785,-53.223,33.691,26.855
1789992425.171848,2.930,-49.805,30.762,20.020
1789992425.175678,-0.488,-55.176,20.996,24.902
1789992425.180509,19.043,-54.199,20.508,2.441
1789992425.184341,37.109,-46.875,26.855,3.418
1789992425.188173,20.020,-39.551,28.320,1.953
1789992425.192005,-10.742,-45.410,21.484,-9.766
1789992425.195837,12.207,-54.199,15.625,13.672
1789992425.199669,42.969,-50.781,8.301,22.949
1789992425.203501,20.020,-46.875,5.859,8.789
1789992425.207333,-12.695,-47.363,0.977,8.301
1789992425.211165,-12.207,-46.387,4.395,6.348
1789992425.214997,31.250,-43.945,30.273,-5.371
1789992425.218829,37.109,-43.945,37.598,7.324
1789992425.222661,-1.465,-43.457,21.484,5.371
1789992425.227396,-12.695,-44.434,12.207,-5.371
1789992425.231229,21.973,-42.969,10.254,13.184
1789992425.235062,34.668,-43.945,-0.488,10.742
1789992425.238895,6.836,-47.852,-9.766,-2.930
1789992425.242728,-7.324,-43.457,-1.465,7.324
1789992425.246561,18.555,-34.668,8.789,16.113
1789992425.250393,31.250,-31.738,4.883,3.418
1789992425.254226,9.277,-30.762,-6.348,-5.371
1789992425.258060,-20.020,-34.180,-31.250,-1.465
1789992425.261892,-9.766,-36.133,-53.223,17.578
1789992425.265725,22.461,-40.039,-59.082,6.836
1789992425.269558,16.602,-37.598,-65.918,-28.809
1789992425.274221,4.883,-33.203,-76.660,-8.301
1789992425.278055,0.977,-44.922,-87.891,-3.418
1789992425.281889,30.762,-42.969,-94.727,-4.883
1789992425.285723,37.598,-35.645,-111.328,7.324
1789992425.289557,11.719,-32.715,-127.441,5.371
1789992425.293391,-11.719,-30.273,-132.812,-0.488
1789992425.297225,25.879,-40.527,-136.719,16.113
1789992425.301058,32.715,-41.504,-134.277,23.926
1789992425.304892,6.348,-30.762,-139.648,4.395
1789992425.308726,2.930,-33.203,-147.461,10.742
1789992425.312560,33.203,-34.180,-129.883,25.391
1789992425.316394,42.969,-40.527,-119.629,32.715
1789992425.320948,-3.906,-45.898,-121.094,23.926
1789992425.324782,-17.578,-44.922,-117.188,26.855
1789992425.328617,4.395,-43.945,-114.746,21.484
1789992425.332452,24.414,-34.668,-114.746,8.789
1789992425.336286,11.719,-33.203,-113.281,17.090
1789992425.340121,-30.762,-41.016,-126.953,7.324
1789992425.343956,-39.551,-45.410,-146.484,3.418
1789992425.347790,2.441,-46.387,-138.184,7.324
1789992425.351625,-10.254,-45.410,-143.555,-8.301
1789992425.355460,-28.320,-46.387,-176.270,-6.348
1789992425.359294,-31.250,-50.781,-190.430,0.977
1789992425.363129,-19.531,-50.781,-173.828,0.977
1789992425.368158,0.977,-40.039,-172.363,16.602
1789992425.371994,-9.766,-32.715,-170.898,11.719
1789992425.375830,-18.066,-40.039,-161.133,-3.906
1789992425.379666,-13.184,-42.480,-156.250,0.000
1789992425.383502,3.906,-37.598,-143.555,13.184
1789992425.387337,4.883,-42.969,-130.859,19.043
1789992425.391174,-5.859,-41.992,-123.535,24.414
1789992425.395010,-14.648,-34.180,-128.418,20.996
1789992425.398845,19.043,-29.785,-127.441,10.254
1789992425.402681,10.254,-30.273,-128.418,10.254
1789992425.406517,-19.531,-42.480,-124.512,6.836
1789992425.410353,-7.812,-49.316,-116.211,8.301
1789992425.415269,12.207,-41.992,-111.816,23.926
1789992425.419106,5.371,-40.039,-111.328,6.348
1789992425.422943,-15.625,-38.086,-107.910,1.465
1789992425.426780,-24.902,-29.297,-109.375,10.254
1789992425.430617,8.301,-32.715,-111.328,3.906
1789992425.434454,17.578,-41.504,-94.238,20.996
1789992425.438292,-14.160,-34.668,-78.125,41.016
1789992425.442129,-43.945,-34.668,-81.543,0.488
1789992425.445966,-23.438,-38.086,-74.707,-13.184
1789992425.449803,9.277,-30.273,-60.059,27.344
1789992425.453640,-4.883,-20.996,-51.758,25.879
1789992425.457477,-20.020,-21.973,-45.410,13.672
1789992425.462318,-23.926,-29.297,-47.852,22.461
1789992425.466156,2.441,-26.367,-40.527,23.926
1789992425.469994,7.324,-20.996,-31.250,11.230
1789992425.473832,-4.883,-26.367,-29.785,1.953
1789992425.477671,-11.230,-29.785,-22.949,-6.348
1789992425.481509,22.949,-20.508,-18.555,11.230
1789992425.485347,29.785,-21.973,-19.531,25.391
1789992425.489185,-15.137,-38.574,-7.812,-7.812
1789992425.493023,-26.367,-41.992,13.672,-18.066
1789992425.496861,12.695,-34.180,38.574,3.906
1789992425.500700,12.695,-31.738,62.988,-1.465
1789992425.504538,-11.230,-33.203,74.707,-6.836
1789992425.509315,-22.461,-31.250,83.496,6.836
1789992425.513155,-5.371,-22.461,90.332,3.906
1789992425.516994,18.066,-18.555,100.586,9.277
1789992425.520833,12.207,-22.949,107.910,29.785
1789992425.524672,1.465,-22.461,102.051,25.879
1789992425.528511,-3.418,-21.973,109.863,4.395
1789992425.532351,18.555,-16.113,119.629,15.137
1789992425.536190,3.418,-11.719,103.027,27.344
1789992425.540029,-14.648,-21.973,100.586,29.785
1789992425.543868,-19.531,-32.227,108.887,14.160
1789992425.547707,20.996,-24.414,113.281,15.137
1789992425.551546,40.527,-14.648,91.309,41.016
1789992425.556217,4.883,-21.484,50.781,27.832
1789992425.560057,-10.742,-29.785,32.715,-8.789
1789992425.563897,5.371,-28.809,31.250,-2.930
1789992425.567737,10.254,-26.855,14.648,6.836
1789992425.571577,-5.859,-30.273,-0.488,-22.461
1789992425.575417,-11.230,-28.809,-10.742,-7.324
1789992425.579257,3.418,-24.902,-22.949,22.949
1789992425.583097,27.832,-33.203,-33.691,16.113
1789992425.586937,17.578,-34.668,-49.805,-1.465
1789992425.590777,-2.441,-29.297,-53.711,-1.953
1789992425.594617,-1.953,-32.715,-59.082,0.488
1789992425.598457,25.879,-36.133,-57.617,14.160
1789992425.603106,0.000,-28.320,-44.434,24.902
1789992425.606947,0.000,-23.926,-38.574,3.418
1789992425.610788,0.000,-30.762,-29.785,4.395
1789992425.614629,0.000,-28.320,-16.113,13.184
1789992425.618469,0.000,-20.508,-8.789,-1.465
1789992425.622310,0.000,-22.949,-16.113,-3.418
1789992425.626151,0.000,-27.344,-23.438,20.996
1789992425.629992,0.000,-32.715,-13.184,34.668
1789992425.633833,0.000,-31.250,4.883,31.250
1789992425.637674,0.000,-27.832,8.301,23.438
1789992425.641515,0.000,-35.645,10.254,12.695
1789992425.645355,0.000,-38.574,26.367,6.836
1789992425.649920,41.992,-34.180,29.297,7.324
1789992425.653761,32.227,-39.551,19.531,7.324
1789992425.657603,2.441,-51.758,6.836,6.836
1789992425.661444,5.859,-58.105,-2.441,10.742
1789992425.665286,33.691,-51.270,13.184,20.508
1789992425.669127,14.648,-52.734,28.320,13.672
1789992425.672969,-1.465,-64.941,26.367,12.207
1789992425.676811,-9.277,-61.035,30.273,12.695
1789992425.680652,-1.953,-52.246,43.457,0.488
1789992425.684494,22.949,-58.594,47.852,5.371
1789992425.688335,13.184,-68.848,47.363,1.953
1789992425.692177,-7.812,-62.988,39.062,6.836
1789992425.696646,6.348,-54.688,31.738,-2.441
1789992425.700488,43.457,-45.410,29.297,-3.906
1789992425.704330,31.250,-34.180,11.719,11.230
1789992425.708172,-11.719,-33.203,-4.883,11.719
1789992425.712014,-10.742,-37.598,-9.277,9.766
1789992425.715857,14.648,-39.062,-13.184,22.949
1789992425.719699,20.996,-36.621,-20.996,46.875
1789992425.723541,13.184,-29.297,-23.926,29.785
1789992425.727383,-2.930,-29.785,-19.531,-7.324
1789992425.731225,20.508,-36.621,-7.812,1.953
1789992425.735068,34.180,-32.227,-1.465,22.949
1789992425.738910,16.602,-24.902,-1.953,20.508
1789992425.743328,-7.324,-24.414,-3.906,4.395
1789992425.747171,11.230,-24.414,1.953,1.465
1789992425.751014,22.461,-17.578,6.348,4.883
1789992425.754857,-1.953,-23.438,7.324,0.488
1789992425.758699,-16.602,-30.762,22.949,-4.883
1789992425.762542,4.395,-30.273,51.270,15.137
1789992425.766385,32.227,-30.762,79.590,32.227
1789992425.770228,21.484,-28.809,89.355,30.762
1789992425.774071,-3.418,-27.344,75.684,11.719
1789992425.777913,-2.930,-26.855,65.430,2.930
1789992425.781756,28.809,-23.926,68.359,16.113
1789992425.785599,26.855,-24.414,62.500,3.418
1789992425.790379,-11.230,-33.691,44.434,-16.113
1789992425.794223,-29.297,-37.598,19.531,-4.883
1789992425.798067,9.766,-35.645,8.789,8.789
1789992425.801910,11.230,-28.320,9.766,-1.953
1789992425.805754,-6.836,-27.344,17.578,9.277
1789992425.809597,-2.930,-33.691,17.090,19.043
1789992425.813441,26.367,-22.461,21.484,15.625
1789992425.817285,18.555,-15.625,22.461,4.395
1789992425.821128,-4.395,-20.020,19.531,7.812
1789992425.824972,4.883,-21.484,12.695,14.160
1789992425.828816,17.578,-24.414,4.395,-8.301
1789992425.832659,31.250,-25.879,-2.930,5.859
1789992425.837397,23.438,-23.438,-11.230,19.043
1789992425.841241,-8.301,-23.438,-8.301,0.488
1789992425.845086,-0.488,-25.879,-3.418,-4.395
1789992425.848930,43.457,-25.391,1.465,0.000
1789992425.852775,41.016,-21.973,3.418,7.324
1789992425.856619,16.113,-16.602,9.766,21.484
1789992425.860464,-4.883,-18.555,24.414,9.766
1789992425.864308,10.742,-25.391,40.527,5.859
1789992425.868153,20.996,-35.645,30.273,3.418
1789992425.871997,-2.441,-30.762,26.367,13.672
1789992425.875842,-35.156,-27.832,39.062,13.184
1789992425.879686,-5.371,-33.203,40.039,9.277
1789992425.884372,30.762,-30.273,50.293,21.973
1789992425.888217,1.465,-31.738,47.363,15.137
1789992425.892062,-7.324,-29.785,30.273,0.977
1789992425.895908,25.391,-26.367,36.621,14.648
1789992425.899753,46.875,-20.020,42.969,17.578
1789992425.903598,29.297,-10.742,33.691,-0.977
1789992425.907444,3.418,-14.648,25.391,-1.465
1789992425.911289,-5.859,-27.832,26.855,0.000
1789992425.915134,11.719,-33.691,30.762,3.906
1789992425.918980,13.672,-27.832,36.621,6.836
1789992425.922825,1.953,-14.648,33.691,8.789
1789992425.926670,-17.090,-22.949,30.273,3.906
1789992425.931267,8.789,-26.855,34.668,4.883
1789992425.935112,23.926,-21.484,33.203,5.859
1789992425.938958,-1.465,-25.879,22.949,10.742
1789992425.942805,-18.066,-21.973,8.789,2.930
1789992425.946651,-4.395,-22.461,7.324,3.906
1789992425.950496,17.578,-30.762,13.672,7.324
1789992425.954343,-8.301,-33.691,10.742,2.441
1789992425.958189,-29.297,-37.109,3.418,22.949
1789992425.962034,-24.902,-41.992,1.953,7.812
1789992425.965881,-4.395,-39.062,8.301,-8.301
1789992425.969727,0.977,-35.156,15.137,8.789
1789992425.973572,-20.020,-40.527,16.602,6.836
1789992425.978106,-20.020,-46.875,18.066,-1.465
1789992425.981953,9.766,-43.457,25.391,1.953
1789992425.985799,11.230,-39.062,14.648,6.348
1789992425.989646,-10.254,-38.086,-5.859,9.766
1789992425.993493,-22.949,-41.992,-25.391,10.742
1789992425.997339,-11.719,-48.828,-29.785,-6.348
1789992426.001186,-3.418,-55.664,-25.879,-6.348
1789992426.005033,-5.859,-49.805,-32.227,9.277
1789992426.008879,-14.160,-41.016,-19.531,10.254
1789992426.012726,-5.371,-38.086,-6.836,8.789
1789992426.016572,22.461,-33.203,-18.066,17.090
1789992426.020419,-5.371,-42.969,-22.461,10.254
1789992426.024859,-46.387,-56.152,-24.414,-3.418
1789992426.028707,-22.949,-48.340,-25.879,-8.789
1789992426.032554,17.090,-35.156,-11.230,-2.930
1789992426.036401,12.207,-29.297,13.672,1.953
1789992426.040248,-11.230,-32.715,39.551,-1.953
1789992426.044095,-30.273,-36.133,47.852,-2.930
1789992426.047942,6.348,-31.738,62.012,16.113
1789992426.051790,19.531,-33.691,77.148,25.879
1789992426.055637,-16.113,-39.551,78.613,8.301
1789992426.059484,-36.621,-46.875,85.449,-2.441
1789992426.063331,-17.090,-40.527,80.566,-0.977
1789992426.067178,18.066,-25.391,63.965,31.738
1789992426.071616,0.000,-32.227,53.223,35.645
1789992426.075464,-25.391,-41.992,33.691,11.719
1789992426.079312,-16.113,-33.691,20.996,9.766
1789992426.083159,0.488,-27.344,13.672,20.508
1789992426.087007,-18.066,-29.785,-4.395,24.902
1789992426.090855,-43.945,-34.668,-9.277,15.625
1789992426.094702,-42.480,-36.621,-14.648,13.184
1789992426.098550,-18.066,-28.809,-21.973,11.719
1789992426.102398,-13.672,-35.645,-12.207,13.184
1789992426.106246,-38.574,-45.410,-1.953,16.602
1789992426.110093,-43.945,-43.945,5.371,6.836
1789992426.113941,-17.578,-39.062,13.184,-0.977
1789992426.118279,-13.184,-36.621,27.344,2.930
1789992426.122127,-24.414,-34.180,33.203,14.648
1789992426.125975,-50.781,-31.738,48.340,-1.953
1789992426.129823,-33.203,-35.645,92.285,-5.371
1789992426.133671,-1.953,-41.992,122.559,10.254
1789992426.137519,-18.066,-41.992,127.930,12.207
1789992426.141368,-31.738,-43.945,125.488,10.254
1789992426.145216,-31.738,-47.363,138.184,-5.859
1789992426.149064,-0.488,-36.621,148.926,-12.695
1789992426.152912,-9.277,-36.621,133.789,-4.395
1789992426.156760,-28.809,-42.480,113.281,11.230
1789992426.160608,-34.180,-41.992,101.074,8.789
1789992426.165327,-6.836,-44.434,101.074,4.883
1789992426.169176,-2.441,-46.387,101.562,8.789
1789992426.173025,-33.691,-38.086,97.656,10.742
1789992426.176874,-52.246,-37.598,99.609,-14.160
1789992426.180722,-25.391,-43.945,108.398,-20.020
1789992426.184572,-7.812,-33.203,114.258,7.324
1789992426.188420,-28.809,-36.133,116.699,0.000
1789992426.192269,-44.922,-45.898,127.930,-8.301
1789992426.196118,-8.301,-39.551,133.301,0.488
1789992426.199967,13.184,-38.086,125.488,5.371
1789992426.203816,-23.926,-45.410,118.164,15.137
1789992426.207665,-41.992,-43.457,102.539,4.883
1789992426.212345,-15.625,-30.762,77.637,4.883
1789992426.216194,14.160,-33.203,46.387,18.066
1789992426.220044,-3.906,-33.203,24.902,12.207
1789992426.223894,-28.809,-27.832,13.672,0.000
1789992426.227743,-33.203,-30.273,8.301,-3.418
1789992426.231593,0.488,-29.785,10.254,6.836
1789992426.235443,1.465,-35.156,9.766,3.906
1789992426.239292,-10.742,-36.621,10.254,-1.953
1789992426.243142,-18.555,-35.645,8.301,11.719
1789992426.246992,4.883,-33.203,23.926,13.672
1789992426.250841,31.250,-30.273,41.504,6.836
1789992426.254691,-7.324,-36.621,36.133,-2.441
1789992426.259301,-25.879,-41.016,20.508,8.301
1789992426.263151,5.371,-42.969,5.371,14.648
1789992426.267002,17.090,-36.621,5.371,12.207
1789992426.270852,-13.184,-41.504,8.301,14.160
1789992426.274702,-15.137,-41.992,4.395,8.301
1789992426.278553,-4.883,-24.902,4.883,2.441
1789992426.282403,-2.930,-24.902,13.184,-3.418
1789992426.286253,-2.930,-30.273,23.926,14.648
1789992426.290103,-22.949,-33.691,23.926,22.461
1789992426.293954,-36.133,-32.715,20.996,3.906
1789992426.297804,0.488,-29.785,30.762,1.465
1789992426.301655,-7.324,-40.039,39.551,9.766
1789992426.306211,-38.574,-44.434,31.738,18.555
1789992426.310062,-41.016,-42.969,15.625,10.742
1789992426.313913,-11.230,-39.551,15.137,5.859
1789992426.317764,1.953,-34.180,20.020,16.602
1789992426.321615,-19.531,-40.527,20.996,22.461
1789992426.325466,-46.875,-49.316,9.277,7.324
1789992426.329317,-33.203,-38.574,8.789,6.836
1789992426.333168,10.254,-35.156,0.977,19.043
1789992426.337019,-11.719,-37.109,-19.043,14.160
1789992426.340870,-41.992,-33.691,-25.879,0.000
1789992426.344721,-25.879,-29.785,-28.809,12.695
1789992426.348572,1.465,-29.785,-28.320,31.738
1789992426.353048,5.371,-26.855,-32.227,20.508
1789992426.356900,-21.973,-22.461,-45.410,10.254
1789992426.360751,-39.062,-28.809,-51.270,2.930
1789992426.364603,-2.930,-25.879,-41.992,19.043
1789992426.368454,13.184,-24.902,-33.691,15.625
1789992426.372306,-25.879,-31.250,-39.551,-5.859
1789992426.376157,-39.062,-29.785,-36.621,2.441
1789992426.380009,-11.719,-31.738,-30.762,-5.859
1789992426.383860,-4.395,-30.273,-32.227,-5.371
1789992426.387712,-26.367,-27.344,-30.762,-1.465
1789992426.391563,-63.477,-31.738,-31.250,-10.254
1789992426.395414,-62.500,-35.156,-28.809,-11.719
1789992426.399857,0.000,-34.180,-29.785,-7.324
1789992426.403709,0.000,-35.156,-45.410,-8.301
1789992426.407561,0.000,-40.527,-49.805,12.207
1789992426.411413,0.000,-40.039,-46.387,17.578
1789992426.415265,0.000,-28.320,-43.457,12.695
1789992426.419117,0.000,-27.344,-49.805,16.113
1789992426.422969,0.000,-29.785,-63.965,10.254
1789992426.426821,0.000,-31.738,-63.477,10.742
1789992426.430673,0.000,-35.156,-43.457,16.602
1789992426.434525,0.000,-28.809,-28.320,30.762
1789992426.438377,0.000,-31.250,-22.461,25.391
1789992426.442229,0.000,-33.691,-22.461,1.465
1789992426.446626,-24.414,-29.785,-15.137,-8.789
1789992426.450478,-4.395,-32.227,11.230,8.789
1789992426.454330,-17.578,-38.086,22.461,24.902
1789992426.458183,-30.273,-31.250,13.672,2.441
1789992426.462035,-28.320,-28.320,-2.441,-7.812
1789992426.465888,-18.066,-33.691,-25.879,2.441
1789992426.469740,-33.203,-28.320,-26.855,0.977
1789992426.473593,-45.898,-22.949,-23.438,0.000
1789992426.477445,-38.086,-26.367,-30.273,8.789
1789992426.481297,-5.371,-21.484,-34.668,19.043
1789992426.485150,-10.742,-19.043,-47.852,9.277
1789992426.489002,-47.852,-28.320,-58.594,0.977
1789992426.493306,-59.570,-33.203,-67.871,-7.324
1789992426.497159,-17.090,-29.785,-69.824,4.883
1789992426.501011,-0.488,-27.832,-65.918,18.066
1789992426.504864,-37.598,-31.738,-64.453,17.090
1789992426.508717,-49.316,-29.785,-69.824,8.301
1789992426.512570,-23.926,-26.367,-63.965,17.090
1789992426.516423,-15.625,-33.691,-52.734,13.184
1789992426.520275,-24.902,-35.156,-46.387,-0.977
1789992426.524128,-33.203,-30.273,-30.273,13.184
1789992426.527981,-26.855,-24.902,-29.785,24.902
1789992426.531834,-0.488,-20.996,-39.062,22.949
1789992426.535686,-5.859,-19.531,-39.062,18.066
1789992426.540329,-30.762,-29.297,-43.457,23.438
1789992426.544182,-56.152,-43.945,-43.945,30.273
1789992426.548036,-22.949,-41.992,-52.246,21.973
1789992426.551889,-9.766,-33.691,-67.871,7.812
1789992426.555743,-41.016,-32.715,-62.500,3.906
1789992426.559596,-47.852,-34.180,-54.199,1.465
1789992426.563449,-30.762,-26.367,-53.223,0.977
1789992426.567303,-26.855,-27.832,-46.387,17.090
1789992426.571156,-34.668,-38.086,-46.875,12.207
1789992426.575010,-60.547,-40.527,-42.969,-16.602
1789992426.578863,-45.898,-36.133,-34.180,-13.672
1789992426.582717,-12.207,-30.762,-40.039,-0.488
1789992426.587342,-21.484,-32.227,-47.852,0.000
1789992426.591196,-51.270,-36.133,-53.711,-2.930
1789992426.595050,-60.059,-34.668,-46.387,0.977
1789992426.598904,-19.531,-35.645,-36.621,16.602
1789992426.602758,-13.672,-34.668,-35.645,20.020
1789992426.606612,-38.574,-31.250,-41.992,0.977
1789992426.610466,-54.688,-33.203,-38.574,-5.371
1789992426.614320,-6.348,-30.762,-10.742,14.648
1789992426.618174,8.301,-21.484,-7.324,40.527
1789992426.622028,-18.066,-18.066,-6.836,33.691
1789992426.625882,-27.344,-17.578,-3.418,15.137
1789992426.629737,-13.672,-22.949,-6.348,25.879
1789992426.634265,-3.418,-26.367,-7.812,33.691
1789992426.638120,-25.391,-27.832,-20.508,28.320
1789992426.641974,-46.875,-29.785,-25.879,20.508
1789992426.645829,-37.598,-28.809,-28.809,10.742
1789992426.649683,-2.930,-27.344,-37.598,17.578
1789992426.653538,0.977,-21.973,-37.109,40.527
1789992426.657393,-16.113,-21.484,6.348,24.414
1789992426.661247,-19.531,-24.414,52.734,1.953
1789992426.665102,11.719,-22.461,71.777,34.668
1789992426.668957,3.418,-20.508,77.148,30.762
1789992426.672811,-29.785,-23.438,72.266,-1.465
1789992426.676666,-36.621,-27.344,65.430,-7.812
1789992426.681153,-1.465,-27.344,42.480,5.859
1789992426.685008,0.000,-25.879,-0.488,41.992
1789992426.688864,-31.738,-27.344,-39.551,27.344
1789992426.692719,-40.527,-29.785,-61.035,0.977
1789992426.696574,-23.926,-24.414,-56.152,12.695
1789992426.700429,9.277,-21.973,-48.828,21.973
1789992426.704284,-5.859,-35.156,-59.570,31.250
1789992426.708139,-35.645,-40.039,-60.547,32.715
1789992426.711994,-14.648,-28.809,-43.457,38.086
1789992426.715849,8.301,-20.508,-25.879,37.109
1789992426.719704,-6.836,-23.926,-29.297,13.672
1789992426.723559,-29.297,-28.320,-36.133,5.371
1789992426.728006,-14.648,-25.879,-21.973,12.207
1789992426.731862,-6.836,-27.832,3.906,11.719
1789992426.735718,-11.719,-28.320,8.301,11.230
1789992426.739573,-17.578,-25.879,2.930,2.930
1789992426.743429,-51.758,-26.855,0.000,-4.883
1789992426.747284,-14.160,-29.297,-14.648,8.301
1789992426.751140,-6.348,-31.738,-18.066,12.207
1789992426.754995,-40.527,-34.180,0.977,3.906
1789992426.758851,-41.504,-32.715,16.113,9.277
1789992426.762707,-13.672,-30.762,9.766,7.324
1789992426.766562,4.395,-30.273,-3.906,26.855
1789992426.770418,-11.719,-27.344,-21.484,29.297
1789992426.774805,-19.043,-28.320,-46.875,3.906
1789992426.778661,-5.371,-24.414,-64.453,9.277
1789992426.782517,10.254,-18.555,-74.219,26.855
1789992426.786373,-9.277,-14.160,-78.125,23.926
1789992426.790229,-26.367,-18.555,-65.430,14.648
1789992426.794085,-15.625,-23.438,-50.781,22.461
1789992426.797940,20.508,-18.555,-41.992,27.832
1789992426.801797,5.859,-20.508,-33.203,18.555
1789992426.805653,-13.184,-25.879,-23.926,14.648
1789992426.809509,-21.973,-24.414,-24.414,14.648
1789992426.813365,4.883,-23.926,-21.973,17.090
1789992426.817220,34.180,-22.949,-23.926,28.320
1789992426.821546,8.301,-24.902,-15.625,17.578
1789992426.825402,-23.926,-29.297,-15.137,-0.488
1789992426.829259,-5.859,-25.879,-27.344,18.555
1789992426.833115,-2.441,-20.508,-21.973,17.090
1789992426.836972,-22.461,-24.414,-27.344,5.859
1789992426.840828,-34.180,-31.738,-50.781,10.742
1789992426.844684,-29.785,-30.762,-66.406,11.719
1789992426.848541,15.137,-26.367,-68.359,16.602
1789992426.852397,3.906,-21.973,-53.223,20.508
1789992426.856253,-27.344,-25.879,-37.598,13.184
1789992426.860110,-30.273,-32.227,-25.391,1.953
1789992426.863966,-4.883,-37.598,-6.348,10.254
1789992426.868258,-1.465,-39.551,1.465,26.367
1789992426.872115,-31.250,-31.738,-5.859,24.902
1789992426.875972,-53.711,-28.809,-24.414,15.625
1789992426.879828,-24.902,-29.785,-37.109,19.043
1789992426.883685,-15.625,-31.250,-47.363,0.977
1789992426.887542,-40.527,-38.086,-70.801,-12.207
1789992426.891398,-53.223,-41.992,-88.867,-2.441
1789992426.895255,-22.461,-33.203,-88.379,-1.465
1789992426.899112,15.625,-28.809,-88.867,0.000
1789992426.902968,-6.348,-32.227,-92.773,3.418
1789992426.906825,-38.086,-27.344,-83.984,-9.277
1789992426.910681,-30.273,-29.297,-80.566,-16.113
1789992426.915301,12.207,-33.203,-89.844,-6.836
1789992426.919158,-8.789,-36.133,-95.703,-9.766
1789992426.923015,-40.527,-45.898,-98.145,-11.230
1789992426.926873,-40.039,-46.387,-98.145,8.301
1789992426.930730,-9.766,-43.945,-88.867,8.301
1789992426.934587,-5.371,-41.992,-73.242,-6.348
1789992426.938444,-39.551,-40.527,-48.828,-11.230
1789992426.942302,-41.992,-40.527,-7.324,-4.883
1789992426.946159,-20.508,-37.109,31.738,3.418
1789992426.950016,-7.812,-39.062,48.828,10.742
1789992426.953873,-20.996,-41.016,48.340,39.062
1789992426.957731,-44.434,-41.016,37.598,38.574
1789992426.962282,-19.531,-43.945,24.902,3.418
1789992426.966140,13.672,-42.969,15.137,9.766
1789992426.969998,-5.859,-40.527,12.695,27.832
1789992426.973856,-19.531,-42.480,12.695,24.902
1789992426.977714,-9.766,-35.156,0.977,13.672
1789992426.981571,21.484,-27.832,-13.184,13.672
1789992426.985429,9.766,-33.203,-10.742,27.832
1789992426.989287,-20.020,-35.645,-14.648,30.273
1789992426.993145,-5.859,-27.344,-35.645,24.414
1789992426.997002,31.738,-21.973,-51.270,36.133
1789992427.000860,27.344,-22.461,-73.730,44.434
1789992427.004718,11.230,-21.484,-96.191,39.062
1789992427.009229,0.000,-22.949,-107.910,17.578
1789992427.013088,8.789,-21.973,-119.629,-3.418
1789992427.016946,12.695,-21.973,-123.535,25.879
1789992427.020804,-11.230,-27.344,-123.047,24.902
1789992427.024662,-17.090,-23.438,-121.094,-1.953
1789992427.028521,-5.859,-23.926,-116.211,6.348
1789992427.032379,26.367,-27.344,-114.258,14.160
1789992427.036237,10.742,-29.297,-109.375,15.625
1789992427.040095,-16.602,-31.738,-101.562,14.160
1789992427.043954,-17.090,-34.668,-93.750,8.789
1789992427.047812,12.207,-34.180,-76.172,24.414
1789992427.051670,27.832,-26.855,-74.219,40.527
1789992427.056142,-2.441,-21.973,-85.449,34.668
1789992427.060001,-17.578,-25.391,-83.008,24.902
1789992427.063860,11.230,-28.320,-63.477,33.203
1789992427.067718,15.625,-30.273,-59.082,29.297
1789992427.071577,-13.672,-30.762,-62.988,2.441
1789992427.075436,-29.785,-27.832,-68.848,-6.348
1789992427.079294,0.977,-22.949,-60.547,-5.371
1789992427.083153,7.812,-23.926,-53.223,9.766
1789992427.087012,-20.996,-28.809,-61.035,5.859
1789992427.090871,-15.137,-28.809,-69.824,-3.906
1789992427.094729,3.906,-29.297,-78.125,1.465
1789992427.098588,21.973,-26.855,-79.590,1.465
1789992427.102989,10.742,-24.902,-79.102,2.441
1789992427.106848,-26.367,-25.391,-84.473,-4.395
1789992427.110707,-24.902,-27.832,-84.473,-2.930
1789992427.114566,13.184,-33.203,-84.473,11.230
1789992427.118425,17.090,-36.133,-88.379,16.113
1789992427.122284,3.418,-31.738,-78.125,20.020
1789992427.126143,-6.348,-31.738,-63.965,21.484
1789992427.130003,20.020,-22.949,-45.410,27.344
1789992427.133862,26.855,-8.789,-30.273,29.297
1789992427.137721,9.766,-14.160,-33.203,20.996
1789992427.141580,9.766,-18.555,-37.598,20.020
1789992427.145439,11.230,-12.207,-32.715,10.254
1789992427.149790,19.531,-14.648,-15.137,15.625
1789992427.153649,3.418,-21.484,-2.441,17.090
1789992427.157508,-23.438,-25.879,-5.859,-1.953
1789992427.161368,-17.578,-19.531,-3.418,0.000
1789992427.165227,2.930,-20.996,61.035,6.836
1789992427.169087,-11.719,-32.227,116.699,-1.465
1789992427.172946,-27.344,-39.551,106.445,11.719
1789992427.176806,-34.180,-36.621,113.770,32.227
1789992427.180665,-0.977,-24.414,136.719,27.832
1789992427.184525,5.859,-21.484,133.301,19.043
1789992427.188384,-19.043,-22.949,115.234,12.207
1789992427.192244,-26.367,-27.344,95.703,13.672
1789992427.196549,-5.859,-32.227,80.566,21.484
1789992427.200408,21.484,-33.203,64.453,31.738
1789992427.204268,-0.977,-37.598,39.062,36.621
1789992427.208128,-33.691,-36.621,4.395,9.277
1789992427.211988,-7.812,-34.668,-20.020,-6.836
1789992427.215848,22.461,-40.039,-42.969,1.953
1789992427.219707,15.137,-42.480,-73.242,14.160
1789992427.223567,-1.953,-41.016,-88.867,26.855
1789992427.227427,-7.812,-38.086,-99.609,30.762
1789992427.231287,17.090,-37.109,-109.375,18.555
1789992427.235147,16.602,-35.645,-103.027,10.742
1789992427.239007,-6.836,-34.668,-89.355,18.555
1789992427.243268,-19.043,-31.738,-92.773,17.578
1789992427.247128,23.438,-25.391,-87.891,20.020
1789992427.250988,42.480,-26.855,-22.461,22.949
1789992427.254848,7.324,-28.809,56.641,26.367
1789992427.258708,-11.230,-28.809,94.238,20.020
1789992427.262568,20.508,-30.762,105.469,8.301
1789992427.266428,39.062,-28.320,116.211,12.207
1789992427.270288,13.184,-25.879,122.070,11.230
1789992427.274148,-6.836,-27.344,110.352,11.230
1789992427.278008,0.488,-26.367,107.910,4.883
1789992427.281868,24.902,-30.273,99.609,0.977
1789992427.285728,20.508,-26.855,63.965,2.930
1789992427.290309,-15.137,-24.902,34.180,-7.812
1789992427.294169,-25.391,-27.832,21.484,-1.465
1789992427.298030,9.766,-27.344,16.113,22.949
1789992427.301891,30.273,-23.926,8.301,26.367
1789992427.305751,5.859,-27.344,2.930,12.207
1789992427.309612,-17.090,-33.203,34.668,12.695
1789992427.313472,11.719,-32.715,72.754,20.996
1789992427.317333,10.254,-35.156,79.102,18.555
1789992427.321193,-16.602,-41.504,79.590,8.301
1789992427.325054,-25.391,-44.434,82.520,8.789
1789992427.328915,-15.625,-46.875,89.844,6.836
1789992427.332775,8.789,-46.875,89.844,28.809
1789992427.337298,12.695,-42.969,86.914,37.109
1789992427.341159,-3.906,-40.527,85.938,21.484
1789992427.345020,3.418,-38.574,87.402,28.809
1789992427.348881,38.086,-33.203,96.191,37.598
1789992427.352742,26.367,-22.949,104.492,26.367
1789992427.356603,-13.672,-20.020,95.215,15.137
1789992427.360464,-5.371,-20.996,83.008,18.066
1789992427.364325,22.949,-17.578,84.473,25.391
1789992427.368186,15.137,-18.066,74.219,19.531
1789992427.372047,1.953,-19.531,64.941,17.090
1789992427.375908,-20.508,-21.973,65.918,4.883
1789992427.379769,9.277,-25.391,57.129,-4.395
1789992427.384251,38.086,-25.879,34.180,4.883
1789992427.388113,7.812,-32.715,7.812,0.977
1789992427.391974,-13.184,-31.738,-5.859,1.953
1789992427.395836,1.465,-31.738,1.953,8.789
1789992427.399697,27.832,-31.738,13.672,6.348
1789992427.403558,8.301,-25.391,20.020,6.348
1789992427.407420,-33.203,-31.738,30.762,-6.348
1789992427.411282,-35.645,-38.086,35.645,-20.020
1789992427.415143,-7.324,-35.156,34.668,1.465
1789992427.419004,-1.953,-29.785,37.598,15.625
1789992427.422866,-22.461,-25.879,38.574,13.184
1789992427.426727,-26.367,-34.180,37.109,0.000
1789992427.431142,3.906,-36.621,40.039,7.812
1789992427.435004,9.766,-37.598,44.922,26.855
1789992427.438865,-8.789,-42.969,35.156,22.949
1789992427.442727,-7.324,-34.180,32.715,29.785
1789992427.446589,10.742,-27.832,38.574,30.762
1789992427.450451,13.184,-32.227,29.297,17.090
1789992427.454313,9.277,-33.203,21.973,11.230
1789992427.458175,-2.441,-28.809,15.137,5.859
1789992427.462037,-8.301,-31.738,-7.812,5.859
1789992427.465899,11.230,-26.855,-10.742,2.441
1789992427.469760,2.441,-28.320,-15.137,0.488
1789992427.473622,-11.719,-30.762,-28.809,11.230
1789992427.478071,-2.930,-24.902,-35.156,9.766
1789992427.481934,27.344,-23.926,-35.156,0.488
1789992427.485796,23.926,-21.484,-38.574,-8.301
1789992427.489658,-7.812,-20.996,-43.457,-5.371
1789992427.493520,-21.973,-22.461,-46.875,2.441
1789992427.497383,15.625,-24.902,-44.922,8.789
1789992427.501245,35.645,-25.879,-43.945,6.836
1789992427.505107,15.137,-23.926,-49.805,3.418
1789992427.508970,-2.930,-28.809,-49.316,-5.859
1789992427.512832,12.207,-33.691,-49.805,-4.395
1789992427.516694,23.926,-33.203,-49.805,-6.348
1789992427.520556,13.672,-27.344,-50.781,-6.348
1789992427.524953,-1.953,-22.461,-44.922,8.789
1789992427.528815,2.441,-28.809,-39.551,10.742
1789992427.532678,30.762,-29.297,-37.598,19.531
1789992427.536541,18.066,-23.438,-42.480,24.902
1789992427.540403,-6.348,-26.855,-57.129,14.648
1789992427.544266,-2.441,-25.391,-54.688,11.230
1789992427.548128,15.137,-23.438,-50.781,17.578
1789992427.551991,13.184,-24.902,-45.410,18.555
1789992427.555854,-1.465,-20.020,-40.527,9.277
1789992427.559716,3.906,-20.996,-49.805,9.766
1789992427.563579,30.762,-21.973,-48.340,9.277
1789992427.567441,7.812,-23.438,-46.387,-5.859
1789992427.571747,-10.742,-21.973,-43.945,0.000
1789992427.575609,-11.230,-29.297,-40.527,0.977
1789992427.579472,-7.812,-43.457,-37.598,-18.066
1789992427.583335,2.930,-47.363,-30.762,-16.113
1789992427.587198,-14.160,-41.504,-35.645,-9.277
1789992427.591061,-38.086,-38.574,-41.504,-11.719
1789992427.594924,-26.367,-42.480,-29.785,-5.371
1789992427.598787,4.883,-42.969,-20.996,-0.488
1789992427.602650,-6.348,-41.016,-24.414,-2.930
1789992427.606513,-23.926,-39.551,-22.949,2.441
1789992427.610376,-28.320,-40.039,-13.672,2.930
1789992427.614239,2.930,-43.457,-14.648,0.977
1789992427.618480,-5.371,-48.828,-24.414,11.719
1789992427.622343,-34.180,-46.875,-20.020,18.555
1789992427.626206,-37.109,-40.039,-23.926,17.090
1789992427.630069,-4.883,-35.156,-17.578,34.668
1789992427.633932,12.695,-28.320,-5.371,41.504
1789992427.637796,-15.137,-27.832,-6.836,35.645
1789992427.641659,-37.598,-35.645,0.488,26.367
1789992427.645522,-19.043,-43.945,0.000,10.742
1789992427.649385,1.953,-40.527,0.000,13.672
1789992427.653248,-13.672,-37.109,-4.883,20.508
1789992427.657111,-37.109,-42.480,-11.719,13.672
1789992427.660975,-29.297,-37.109,-3.906,6.348
1789992427.665538,10.742,-24.902,-15.625,20.020
1789992427.669401,-8.789,-35.156,-44.434,16.602
1789992427.673265,-46.875,-47.852,-57.617,0.977
1789992427.677129,-33.203,-44.922,-58.594,6.836
1789992427.680992,9.277,-36.621,-48.340,7.324
1789992427.684856,-4.395,-42.480,-44.922,2.441
1789992427.688720,-25.391,-44.922,-51.270,13.672
1789992427.692583,-19.043,-35.156,-49.316,13.184
1789992427.696447,13.672,-29.297,-43.457,1.953
1789992427.700310,14.160,-28.320,-34.668,-1.953
1789992427.704174,-17.090,-29.785,-34.668,-3.418
1789992427.708038,-31.250,-37.598,-54.688,-4.395
1789992427.712574,-20.508,-34.668,-57.129,2.930
1789992427.716438,17.090,-30.762,-48.340,18.555
1789992427.720302,0.977,-40.039,-55.176,10.254
1789992427.724166,-34.668,-41.992,-64.941,1.465
1789992427.728030,-27.344,-41.992,-65.430,3.906
1789992427.731894,12.207,-41.992,-61.523,17.578
1789992427.735758,9.766,-40.039,-55.176,25.879
1789992427.739622,-34.180,-45.410,-55.176,9.766
1789992427.743486,-41.992,-45.410,-59.570,12.207
1789992427.747350,-4.395,-42.969,-52.734,20.996
1789992427.751215,-2.930,-45.898,-44.434,5.859
1789992427.755079,-18.066,-50.781,-50.781,-1.953
1789992427.759562,0.000,-47.852,-63.965,-3.418
1789992427.763426,0.000,-41.992,-72.754,6.836
1789992427.767290,0.000,-37.109,-71.777,14.160
1789992427.771155,0.000,-41.504,-67.383,20.020
1789992427.775019,0.000,-48.828,-88.867,15.625
1789992427.778884,0.000,-44.922,-83.496,-3.906
1789992427.782748,0.000,-37.598,-43.945,-3.418
1789992427.786613,0.000,-36.133,-37.598,-2.441
1789992427.790477,0.000,-35.645,-43.945,-5.859
1789992427.794342,0.000,-30.273,-35.156,0.488
1789992427.798206,0.000,-31.250,-31.250,13.672
1789992427.802071,0.000,-34.668,-50.781,18.555
1789992427.806507,13.672,-37.598,-66.895,15.625
1789992427.810372,6.348,-37.598,-64.453,6.348
1789992427.814237,39.062,-31.738,-50.293,3.418
1789992427.818102,46.875,-29.297,-43.457,13.672
1789992427.821967,19.043,-38.574,-46.875,16.113
1789992427.825832,-2.930,-38.574,-50.781,12.695
1789992427.829696,20.996,-34.180,-47.852,14.160
1789992427.833561,36.621,-47.363,-57.129,13.184
1789992427.837426,15.625,-54.688,-68.359,21.484
1789992427.841291,-5.859,-56.641,-66.895,7.324
1789992427.845156,-6.348,-55.664,-55.664,6.348
1789992427.849021,18.066,-47.852,-49.316,24.414
1789992427.853381,12.695,-43.945,-56.641,20.020
1789992427.857247,-14.648,-44.434,-57.617,8.301
1789992427.861112,-20.996,-48.828,-46.387,10.254
1789992427.864977,15.137,-43.457,-37.598,15.625
1789992427.868842,19.043,-33.691,-35.645,22.461
1789992427.872707,-10.742,-40.039,-29.297,8.301
1789992427.876572,-26.367,-41.504,-28.320,1.465
1789992427.880438,6.348,-41.016,-35.645,8.301
1789992427.884303,14.160,-41.016,-40.039,0.977
1789992427.888168,-13.184,-39.551,-41.504,7.812
1789992427.892033,-29.785,-54.199,-42.969,2.930
1789992427.895898,-8.301,-53.711,-42.480,0.977
1789992427.900244,11.719,-41.016,-34.180,0.000
1789992427.904110,-10.742,-36.621,-35.645,0.000
1789992427.907975,-16.602,-37.109,-38.086,0.000
1789992427.911841,1.465,-40.527,-39.551,0.000
1789992427.915706,28.320,-38.086,-37.109,0.000
1789992427.919572,35.156,-35.645,-41.992,0.000
1789992427.923437,9.766,-38.086,-52.246,0.000
1789992427.927303,-18.555,-38.574,-50.781,0.000
1789992427.931168,10.254,-34.668,-47.363,0.000
1789992427.935033,19.531,-43.457,-53.223,0.000
1789992427.938899,-14.648,-50.781,-54.199,0.000
1789992427.942764,-28.809,-45.898,-46.387,0.000
1789992427.947023,8.789,-39.551,-47.363,-11.719
1789992427.950889,22.949,-42.480,-45.898,-0.488
1789992427.954755,-8.301,-44.922,-47.852,1.465
1789992427.958621,-12.207,-43.457,-56.152,3.906
1789992427.962486,12.207,-42.969,-51.758,9.766
1789992427.966352,36.621,-37.598,-45.410,13.184
1789992427.970218,34.668,-35.645,-52.246,25.391
1789992427.974083,20.020,-35.645,-104.492,28.809
1789992427.977949,34.180,-35.156,-181.641,35.156
1789992427.981815,67.871,-36.133,-214.355,36.133
1789992427.985681,50.781,-39.551,-224.609,21.484
1789992427.989546,25.391,-37.598,-224.121,7.812
1789992427.993767,18.555,-35.156,-228.027,3.906
1789992427.997633,30.762,-34.180,-241.211,13.184
1789992428.001498,26.367,-32.227,-240.234,16.113
1789992428.005364,4.883,-41.992,-227.051,12.207
1789992428.009230,-1.465,-43.457,-219.238,11.719
1789992428.013096,22.949,-34.180,-213.867,7.812
1789992428.016962,37.598,-36.621,-197.266,9.766
1789992428.020828,10.254,-45.410,-175.781,11.719
1789992428.024694,2.930,-45.410,-164.062,10.254
1789992428.028560,17.578,-40.527,-154.297,18.066
1789992428.032426,28.809,-38.574,-139.648,24.902
1789992428.036292,18.555,-40.527,-122.559,3.418
1789992428.040762,1.953,-43.457,-73.730,-9.277
1789992428.044629,9.766,-40.527,-31.738,-5.859
1789992428.048495,42.480,-36.133,-27.344,12.695
1789992428.052361,28.809,-32.715,-23.926,25.391
1789992428.056228,-4.395,-36.133,-8.301,12.207
1789992428.060094,0.000,-44.922,4.395,7.324
1789992428.063960,41.992,-39.551,11.719,23.438
1789992428.067827,40.039,-35.645,18.555,20.508
1789992428.071693,10.254,-38.574,23.926,15.625
1789992428.075559,13.184,-31.738,22.461,20.020
1789992428.079426,32.227,-32.715,23.926,18.555
1789992428.083292,47.852,-34.668,32.227,34.668
1789992428.087776,0.000,-31.250,0.000,27.832
1789992428.091642,0.000,-29.785,0.000,6.836
1789992428.095509,0.000,-24.902,0.000,9.277
1789992428.099376,0.000,-22.461,0.000,22.949
1789992428.103243,0.000,-25.879,0.000,28.320
1789992428.107109,0.000,-31.738,0.000,2.930
1789992428.110976,0.000,-35.645,0.000,0.488
1789992428.114843,0.000,-35.156,0.000,20.508
1789992428.118709,0.000,-37.109,0.000,28.320
1789992428.122576,0.000,-36.621,0.000,27.832
1789992428.126443,0.000,-29.297,0.000,17.090
1789992428.130309,0.000,-26.855,0.000,17.578
1789992428.134725,56.641,-24.414,-1.465,23.438
1789992428.138592,31.738,-26.855,-10.742,23.926
1789992428.142459,11.719,-36.621,-19.531,25.391
1789992428.146326,34.180,-38.086,-20.508,37.598
1789992428.150193,49.805,-41.504,-15.625,27.344
1789992428.154060,21.484,-44.922,-22.461,20.508
1789992428.157928,9.766,-40.039,-32.715,33.691
1789992428.161794,20.020,-35.645,-33.691,33.691
1789992428.165662,33.691,-31.250,-24.414,37.598
1789992428.169529,18.555,-23.438,-10.254,35.645
1789992428.173396,-1.465,-23.438,-11.230,21.484
1789992428.177263,0.000,-27.344,-13.184,22.949
1789992428.181644,0.000,-27.344,-8.301,27.344
1789992428.185512,0.000,-32.715,-1.953,24.414
1789992428.189379,0.000,-26.855,-6.348,14.160
1789992428.193246,0.000,-27.832,-16.113,6.348
1789992428.197114,0.000,-31.738,-10.254,12.695
1789992428.200981,0.000,-27.832,-6.836,17.090
1789992428.204848,0.000,-28.809,-7.812,13.184
1789992428.208716,0.000,-42.969,-9.766,12.695
1789992428.212583,0.000,-50.293,-5.371,21.484
1789992428.216450,0.000,-37.109,4.883,17.578
1789992428.220318,0.000,-31.738,-8.789,18.555
1789992428.224185,0.000,-32.227,-17.578,29.785
1789992428.228534,-3.906,-33.203,-12.207,23.926
1789992428.232401,11.719,-33.203,-1.953,17.090
1789992428.236269,15.625,-30.762,1.465,20.996
1789992428.240137,-2.441,-33.691,-7.324,17.578
1789992428.244004,-11.230,-35.156,-7.812,12.207
1789992428.247872,25.391,-34.180,-15.137,17.090
1789992428.251740,33.691,-39.062,-33.691,22.461
1789992428.255607,15.625,-43.457,-42.480,29.785
1789992428.259475,-12.207,-41.504,-39.551,18.555
1789992428.263342,-0.488,-38.086,-35.645,18.066
1789992428.267210,21.973,-41.016,-31.250,28.320
1789992428.271078,0.488,-45.410,-34.180,13.184
1789992428.275378,0.000,-47.852,-42.480,5.371
1789992428.279247,0.000,-52.246,-45.898,12.207
1789992428.283114,0.000,-50.781,-58.105,13.672
1789992428.286982,0.000,-44.434,-69.824,4.395
1789992428.290850,0.000,-48.340,-83.984,-3.418
1789992428.294718,0.000,-47.363,-89.355,-1.953
1789992428.298586,0.000,-44.434,-110.352,11.230
1789992428.302454,0.000,-47.852,-153.320,12.207
1789992428.306322,0.000,-47.363,-169.922,-1.953
1789992428.310190,0.000,-49.316,-156.738,3.906
1789992428.314058,0.000,-47.363,-133.789,16.602
1789992428.317925,0.000,-46.387,-101.562,14.648
1789992428.322213,-23.438,-48.828,-88.867,2.930
1789992428.326081,-31.738,-50.781,-110.352,2.930
1789992428.329949,-13.672,-45.898,-115.234,4.395
1789992428.333817,3.906,-41.992,-103.027,8.789
1789992428.337686,-10.254,-42.480,-105.469,9.766
1789992428.341554,-26.855,-46.387,-113.770,2.441
1789992428.345422,-17.090,-57.617,-134.277,1.465
1789992428.349290,16.113,-52.734,-149.902,13.672
1789992428.353158,16.113,-43.945,-150.879,15.137
1789992428.357026,-25.391,-47.363,-157.715,6.348
1789992428.360895,-31.738,-48.828,-147.949,14.648
1789992428.364763,10.254,-52.246,-140.137,17.090
1789992428.368960,6.836,-60.547,-147.949,6.836
1789992428.372828,-20.508,-56.641,-145.508,5.371
1789992428.376697,-21.484,-47.852,-143.555,-10.742
1789992428.380565,21.973,-47.363,-116.211,-14.648
1789992428.384434,35.645,-42.480,-41.016,-0.488
1789992428.388302,3.418,-38.574,-10.254,-2.441
1789992428.392170,-7.324,-45.898,-23.926,-9.766
1789992428.396039,21.973,-44.922,-30.273,0.977
1789992428.399907,47.363,-36.133,-42.969,12.207
1789992428.403775,23.438,-39.062,-83.496,5.371
1789992428.407644,-2.441,-42.969,-125.977,-8.789
1789992428.411512,6.348,-41.016,-133.789,-12.207
1789992428.415950,28.809,-43.945,-133.789,-5.859
1789992428.419818,17.578,-45.898,-141.602,-1.953
1789992428.423687,-13.184,-50.293,-141.113,-4.883
1789992428.427556,-8.301,-56.152,-136.230,-19.043
1789992428.431424,27.832,-47.852,-135.254,-22.461
1789992428.435293,33.691,-40.527,-140.625,4.395
1789992428.439162,20.020,-46.875,-141.113,9.766
1789992428.443030,4.883,-47.852,-128.906,-1.465
1789992428.446899,26.367,-50.781,-111.328,4.883
1789992428.450768,37.109,-56.152,-113.281,20.996
1789992428.454636,-2.930,-50.293,-124.512,21.484
1789992428.458505,-22.949,-43.945,-135.254,-2.930
1789992428.462982,14.160,-45.410,-144.043,6.836
1789992428.466851,35.645,-42.480,-139.160,20.508
1789992428.470720,18.066,-34.180,-126.953,11.719
1789992428.474589,7.324,-30.762,-124.023,9.277
1789992428.478458,23.438,-24.902,-100.586,9.277
1789992428.482327,43.457,-28.320,-55.664,28.320
1789992428.486196,41.504,-39.551,-9.277,26.855
1789992428.490065,29.785,-43.457,30.273,12.695
1789992428.493934,28.320,-39.551,35.156,22.949
1789992428.497803,53.223,-39.062,35.156,27.344
1789992428.501672,53.223,-40.039,41.992,22.949
1789992428.505541,39.062,-32.227,24.414,30.762
1789992428.509897,22.461,-32.227,2.930,16.113
1789992428.513766,45.410,-39.062,-2.930,13.184
1789992428.517636,63.965,-39.551,-17.578,32.715
1789992428.521505,35.156,-41.504,-54.688,29.785
1789992428.525374,17.578,-41.016,-34.668,8.789
1789992428.529243,33.691,-38.574,31.250,1.953
1789992428.533113,54.688,-40.039,30.273,17.578
1789992428.536982,39.062,-45.898,127.930,20.996
1789992428.540852,5.859,-43.945,257.324,6.836
1789992428.544721,8.301,-43.457,270.508,-0.488
1789992428.548590,42.480,-41.016,268.555,16.113
1789992428.552459,47.852,-38.574,255.859,31.250
1789992428.556794,30.273,-42.969,236.816,24.414
1789992428.560664,16.113,-45.898,231.445,10.254
1789992428.564533,48.828,-51.270,226.074,11.719
1789992428.568403,53.223,-55.176,207.520,14.648
1789992428.572273,13.184,-51.758,181.641,-1.953
1789992428.576142,-7.324,-51.270,161.133,-6.836
1789992428.580012,20.508,-45.898,153.809,2.930
1789992428.583881,42.969,-39.062,141.113,18.066
1789992428.587751,14.160,-38.574,119.629,10.742
1789992428.591620,-9.277,-41.504,102.051,-9.766
1789992428.595490,13.184,-41.016,87.402,-4.883
1789992428.599360,35.156,-31.738,81.055,3.906
1789992428.603713,26.367,-27.832,71.289,7.812
1789992428.607583,-1.465,-41.504,37.598,-9.766
1789992428.611452,-9.277,-52.734,10.742,-6.348
1789992428.615322,47.852,-42.480,2.441,24.414
1789992428.619192,68.848,-35.156,-11.230,33.691
1789992428.623062,25.879,-44.434,-12.207,21.973
1789992428.626932,15.137,-49.316,0.000,3.906
1789992428.630802,54.199,-40.039,-0.488,8.301
1789992428.634672,41.016,-36.133,0.488,22.461
1789992428.638541,12.207,-47.852,-15.137,20.020
1789992428.642411,8.789,-52.246,-121.094,16.602
1789992428.646281,24.902,-38.574,-220.703,18.066
1789992428.650540,31.738,-34.180,-242.676,26.855
1789992428.654410,13.672,-39.062,-259.766,22.461
1789992428.658280,-4.883,-45.410,-292.480,4.395
1789992428.662150,-2.930,-43.945,-328.613,8.301
1789992428.666020,22.461,-44.922,-343.750,14.160
1789992428.669891,13.184,-41.992,-333.496,20.996
1789992428.673761,-4.395,-41.016,-322.266,22.461
1789992428.677631,1.465,-45.898,-305.664,23.438
1789992428.681501,27.344,-39.551,-290.039,22.949
1789992428.685371,26.367,-37.109,-294.434,16.602
1789992428.689241,3.906,-38.574,-294.922,12.207
1789992428.693111,-12.695,-45.898,-294.922,4.883
1789992428.697337,6.836,-41.992,-281.738,12.207
1789992428.701207,30.273,-41.504,-273.926,22.461
1789992428.705077,12.207,-48.340,-267.578,16.602
1789992428.708948,-0.977,-41.504,-249.512,5.859
1789992428.712818,17.090,-40.527,-235.840,0.488
1789992428.716688,31.738,-49.316,-217.285,6.836
1789992428.720558,17.578,-52.246,-202.637,7.812
1789992428.724429,0.977,-49.805,-183.105,0.000
1789992428.728299,5.371,-41.992,-164.551,5.859
1789992428.732169,30.273,-37.109,-154.297,21.484
1789992428.736040,24.902,-41.992,-127.930,21.484
1789992428.739910,-1.465,-41.504,-99.121,13.184
1789992428.744094,0.488,-42.969,-94.238,8.789
1789992428.747965,39.551,-49.805,-96.680,22.949
1789992428.751835,33.691,-43.457,-100.098,24.414
1789992428.755706,2.441,-37.109,-98.633,17.090
1789992428.759576,-8.301,-46.387,-101.562,17.578
1789992428.763447,17.090,-46.875,-120.117,13.672
1789992428.767317,31.738,-41.992,-136.230,15.137
1789992428.771188,3.906,-45.898,-140.137,24.902
1789992428.775058,-20.508,-51.758,-150.391,18.066
1789992428.778929,-0.977,-50.293,-150.879,6.836
1789992428.782799,22.461,-45.898,-148.926,20.020
1789992428.786669,8.301,-52.734,-146.973,20.996
1789992428.791476,-8.301,-53.223,-143.066,19.043
1789992428.795346,9.277,-42.480,-145.020,18.555
1789992428.799217,39.062,-43.945,-136.719,14.160
1789992428.803088,22.949,-47.852,-137.207,18.066
1789992428.806959,9.277,-48.828,-138.184,19.043
1789992428.810830,9.277,-59.570,-135.254,16.113
1789992428.814701,22.949,-55.176,-118.652,-0.977
1789992428.818572,10.742,-53.223,-104.492,2.930
1789992428.822443,-4.395,-52.246,-118.164,19.531
1789992428.826314,-7.324,-49.805,-123.047,23.926
1789992428.830185,17.090,-48.340,-104.492,27.344
1789992428.834056,36.133,-47.852,-88.867,24.902
1789992428.838459,17.578,-54.688,-93.750,24.902
1789992428.842330,-9.766,-58.105,-96.680,14.160
1789992428.846201,-1.953,-46.387,-83.984,13.184
1789992428.850072,30.273,-41.504,-66.895,28.809
1789992428.853944,6.348,-51.758,-54.688,20.996
1789992428.857815,-34.180,-51.758,-53.711,3.906
1789992428.861686,-18.066,-46.387,-45.898,5.859
1789992428.865558,25.391,-45.898,-42.480,9.277
1789992428.869429,21.484,-51.758,-63.477,13.672
1789992428.873300,-13.184,-54.688,-73.730,8.789
1789992428.877171,-22.461,-55.664,-75.684,12.695
1789992428.881043,22.949,-48.828,-73.242,20.020
1789992428.885388,31.250,-36.621,-79.102,9.766
1789992428.889259,12.695,-34.668,-84.961,4.395
1789992428.893131,16.113,-37.598,-81.543,1.465
1789992428.897002,33.691,-37.598,-80.078,-2.441
1789992428.900874,44.434,-38.574,-77.637,-0.488
1789992428.904745,23.926,-39.551,-80.078,9.277
1789992428.908617,-2.441,-37.109,-79.102,3.418
1789992428.912488,7.812,-37.109,-76.172,-0.488
1789992428.916360,48.828,-34.668,-79.590,17.578
1789992428.920231,42.969,-35.645,-81.543,10.742
1789992428.924103,1.953,-41.992,-83.984,-1.465
1789992428.927974,3.906,-38.574,-82.031,7.324
1789992428.932298,48.340,-32.227,0.000,27.344
1789992428.936169,47.363,-32.715,0.000,41.016
1789992428.940041,17.578,-39.062,0.000,32.715
1789992428.943913,6.836,-42.480,0.000,22.461
1789992428.947785,41.016,-41.016,0.000,27.344
1789992428.951657,62.500,-40.527,0.000,41.016
1789992428.955528,32.715,-39.551,0.000,29.297
1789992428.959400,10.254,-35.156,0.000,18.066
1789992428.963272,41.992,-36.133,0.000,22.461
1789992428.967144,62.500,-47.852,0.000,17.090
1789992428.971015,16.113,-56.152,0.000,2.441
1789992428.974887,-8.301,-58.105,0.000,-4.883
1789992428.979165,18.066,-46.875,-46.387,3.418
1789992428.983037,57.617,-40.527,-39.062,8.301
1789992428.986909,56.152,-42.480,-36.621,1.465
1789992428.990781,23.438,-41.016,-34.668,-5.371
1789992428.994653,15.137,-43.457,-29.297,-13.184
1789992428.998525,47.852,-44.922,-25.879,-12.207
1789992429.002397,42.969,-49.805,-23.438,-7.324
1789992429.006269,5.371,-59.570,-27.344,-5.371
1789992429.010141,-7.324,-60.059,-30.273,-8.301
1789992429.014013,20.996,-51.758,-35.645,-1.465
1789992429.017885,31.250,-49.805,-42.969,22.949
1789992429.021757,2.441,-62.500,-15.625,16.113
1789992429.026013,-18.555,-67.871,13.184,5.371
1789992429.029885,2.930,-61.035,18.066,13.672
1789992429.033757,18.066,-55.664,68.848,29.297
1789992429.037630,7.324,-59.082,141.602,41.992
1789992429.041502,0.000,-66.406,185.059,43.945
1789992429.045374,8.789,-62.012,213.867,37.109
1789992429.049246,33.203,-52.246,237.305,29.297
1789992429.053118,17.090,-54.199,240.234,36.133
1789992429.056991,-9.766,-59.570,210.449,31.250
1789992429.060863,-12.207,-60.059,187.500,23.926
1789992429.064735,12.207,-53.223,180.176,21.973
1789992429.068607,35.645,-47.852,145.020,26.855
1789992429.072821,20.996,-42.480,104.492,23.926
1789992429.076694,-6.836,-39.551,64.453,14.648
1789992429.080566,16.113,-37.109,15.137,15.625
1789992429.084438,25.391,-40.039,-41.016,25.879
1789992429.088311,6.348,-48.340,-107.910,14.648
1789992429.092183,-15.137,-45.898,-145.508,-1.465
1789992429.096056,-11.719,-42.969,-148.438,2.441
1789992429.099928,15.625,-37.598,-143.066,13.184
1789992429.103800,6.836,-38.574,-149.902,22.461
1789992429.107673,-26.367,-51.270,-162.109,15.137
1789992429.111545,-23.438,-52.246,-157.227,13.184
1789992429.115417,24.414,-44.434,-141.113,27.832
1789992429.119592,30.762,-50.781,-136.719,31.738
1789992429.123464,7.324,-47.852,-137.207,31.250
1789992429.127337,-2.930,-40.039,-135.742,31.738
1789992429.131209,18.555,-34.668,-136.719,21.973
1789992429.135082,30.273,-32.227,-130.371,21.973
1789992429.138955,10.742,-42.480,-133.301,22.461
1789992429.142827,-11.719,-50.293,-119.629,23.926
1789992429.146700,15.625,-50.293,-90.820,30.762
1789992429.150572,32.227,-49.316,-90.820,31.250
1789992429.154445,18.555,-49.316,-89.844,24.414
1789992429.158317,-4.883,-51.270,-62.500,11.719
1789992429.162190,-1.953,-51.758,-12.207,10.742
1789992429.166574,40.039,-50.781,41.992,31.738
1789992429.170447,28.320,-47.363,68.848,31.250
1789992429.174320,2.441,-44.434,78.125,20.020
1789992429.178193,-13.184,-48.828,88.867,12.695
1789992429.182065,5.371,-51.758,89.844,15.625
1789992429.185938,9.277,-57.617,88.379,15.625
1789992429.189811,-20.020,-63.477,85.449,13.672
1789992429.193684,-25.879,-56.641,72.754,18.555
1789992429.197557,14.648,-47.852,74.219,24.414
1789992429.201430,16.113,-44.434,77.148,30.273
1789992429.205302,-22.461,-46.875,67.383,14.648
1789992429.209175,-42.480,-47.363,39.551,-5.859
1789992429.213544,-13.672,-42.480,0.000,-12.695
1789992429.217417,13.184,-38.574,0.000,1.953
1789992429.221290,-16.113,-38.574,0.000,11.719
1789992429.225163,-35.645,-45.410,0.000,3.418
1789992429.229036,-19.043,-46.387,0.000,0.977
1789992429.232909,2.930,-48.828,0.000,9.766
1789992429.236783,-1.953,-49.805,0.000,12.695
1789992429.240655,-10.742,-44.434,0.000,4.883
1789992429.244529,-0.977,-41.016,0.000,-0.488
1789992429.248402,32.227,-36.133,0.000,3.418
1789992429.252275,30.273,-36.133,0.000,16.113
1789992429.256148,8.301,-41.504,0.000,13.672
1789992429.260508,0.000,-41.504,-71.777,4.883
1789992429.264382,0.000,-36.133,-74.707,13.184
1789992429.268255,0.000,-37.598,-0.488,17.090
1789992429.272128,0.000,-48.828,37.109,14.160
1789992429.276002,0.000,-43.945,16.113,14.648
1789992429.279875,0.000,-30.762,-41.992,21.973
1789992429.283748,0.000,-31.250,-81.543,28.809
1789992429.287621,0.000,-34.180,-86.914,21.484
1789992429.291495,0.000,-39.551,-54.199,19.043
1789992429.295368,0.000,-41.504,-11.719,15.625
1789992429.299242,0.000,-49.805,18.555,5.859
1789992429.303115,0.000,-47.363,38.574,20.996
1789992429.307396,36.133,-34.668,56.641,29.297
1789992429.311270,1.465,-41.992,68.848,9.766
1789992429.315143,22.461,-48.340,69.336,1.465
1789992429.319017,20.508,-47.852,58.594,1.465
1789992429.322890,-15.625,-51.270,39.062,-3.906
1789992429.326764,-20.020,-52.246,24.902,-2.930
1789992429.330637,15.137,-47.363,22.949,0.488
1789992429.334511,36.133,-50.293,16.113,15.137
1789992429.338385,14.648,-50.293,8.301,11.719
1789992429.342258,-13.184,-47.363,-4.883,-9.277
1789992429.346132,-8.301,-46.875,-52.246,-11.230
1789992429.350005,23.438,-45.410,-90.332,4.395
1789992429.354239,25.879,-47.852,-111.816,11.719
1789992429.358112,2.930,-51.270,-133.789,3.418
1789992429.361986,7.812,-52.734,-128.418,-10.254
1789992429.365860,33.691,-53.223,-106.934,-1.465
1789992429.369733,29.297,-57.617,-104.980,7.812
1789992429.373607,16.602,-57.129,-104.004,0.000
1789992429.377481,-2.441,-52.246,-104.980,-1.953
1789992429.381355,21.973,-47.363,-106.934,9.766
1789992429.385228,17.090,-54.199,-94.238,7.324
1789992429.389102,-14.648,-58.105,-96.680,6.836
1789992429.392976,-20.508,-50.781,-105.469,11.719
1789992429.396849,3.418,-48.828,-100.586,14.160
1789992429.401051,10.254,-51.270,-104.980,22.461
1789992429.404924,-10.742,-52.246,-108.398,21.973
1789992429.408798,-23.438,-53.223,-111.328,20.996
1789992429.412672,-12.695,-53.711,-108.887,18.555
1789992429.416546,0.000,-52.734,-100.098,9.766
1789992429.420420,-11.230,-46.387,-97.656,9.766
1789992429.424294,-17.578,-49.316,-103.516,15.625
1789992429.428168,-3.906,-49.805,-105.469,22.461
1789992429.432042,32.715,-40.527,-100.098,25.391
1789992429.435916,21.973,-39.551,-100.098,20.996
1789992429.439790,-4.883,-39.551,-99.121,18.555
1789992429.443663,-12.207,-37.598,-101.074,3.906
1789992429.447828,15.137,-38.574,-87.891,1.953
1789992429.451702,41.016,-37.598,-82.031,29.785
1789992429.455576,10.254,-39.062,-90.820,35.645
1789992429.459450,-18.555,-39.062,-90.820,23.926
1789992429.463324,1.465,-37.598,-92.773,9.766
1789992429.467198,22.949,-41.504,-100.098,18.555
1789992429.471072,14.648,-43.457,-102.051,41.016
1789992429.474946,-0.977,-43.457,-90.820,31.738
1789992429.478821,21.973,-39.062,-83.496,21.973
1789992429.482695,44.922,-34.668,-80.566,34.180
1789992429.486569,18.066,-29.785,-75.684,33.691
1789992429.490443,-16.602,-36.133,-77.148,20.020
1789992429.494585,-8.301,-40.039,-76.172,20.508
1789992429.498459,44.922,-30.273,-73.730,31.250
1789992429.502333,55.176,-30.762,-77.637,26.855
1789992429.506208,16.602,-33.691,-74.707,21.973
1789992429.510082,-1.465,-32.227,-69.824,27.832
1789992429.513956,35.156,-32.715,-61.523,36.621
1789992429.517830,43.945,-30.762,-65.918,37.109
1789992429.521704,8.789,-31.738,-80.078,16.602
1789992429.525578,-5.859,-39.062,-91.797,-7.324
1789992429.529453,20.020,-37.109,-99.121,7.812
1789992429.533327,40.527,-33.691,-90.820,19.531
1789992429.537201,3.418,-40.039,-95.703,-7.324
1789992429.541560,0.000,-41.992,-108.398,-6.348
1789992429.545435,0.000,-38.086,-118.164,1.465
1789992429.549309,0.000,-41.016,-122.559,0.488
1789992429.553184,0.000,-44.922,-117.676,9.277
1789992429.557058,0.000,-40.039,-117.188,11.719
1789992429.560932,0.000,-37.109,-115.723,17.090
1789992429.564807,0.000,-36.621,-110.352,20.996
1789992429.568681,0.000,-38.574,-116.699,20.996
1789992429.572556,0.000,-42.480,-123.047,12.695
1789992429.576430,0.000,-44.434,-124.023,-1.953
1789992429.580304,0.000,-41.504,-113.281,-3.906
1789992429.584179,0.000,-34.180,-104.004,18.066
1789992429.588515,13.672,-34.668,-101.074,14.648
1789992429.592389,-15.625,-39.062,-99.609,-2.930
1789992429.596264,13.184,-34.180,-96.191,9.766
1789992429.600139,36.133,-29.785,-99.121,26.367
1789992429.604013,20.996,-39.062,-104.492,25.879
1789992429.607888,8.301,-47.363,-106.934,17.578
1789992429.611763,11.719,-47.363,-107.422,11.719
1789992429.615637,47.852,-43.945,-104.980,19.531
1789992429.619512,45.898,-43.945,-106.445,35.645
1789992429.623387,10.254,-37.109,-103.516,22.949
1789992429.627261,12.695,-38.574,-100.586,6.836
1789992429.631136,45.898,-48.828,-98.145,15.137
1789992429.635462,41.504,-52.246,-99.609,14.160
1789992429.639337,19.531,-51.270,-99.609,0.000
1789992429.643212,14.160,-50.293,-93.750,-6.836
1789992429.647087,47.852,-53.223,-87.402,10.254
1789992429.650962,69.824,-48.340,-78.125,27.344
1789992429.654837,38.086,-40.039,-83.496,15.137
1789992429.658711,16.113,-38.574,-95.215,-4.883
1789992429.662586,34.180,-37.109,-77.637,-1.953
1789992429.666461,57.617,-40.039,-53.223,7.324
1789992429.670336,43.945,-46.387,-46.387,14.160
1789992429.674211,15.137,-38.574,-48.828,5.371
1789992429.678086,13.184,-35.156,-51.758,-1.465
1789992429.682361,33.203,-47.363,-41.016,14.160
1789992429.686236,47.852,-41.992,-35.645,18.555
1789992429.690111,38.086,-35.156,-38.574,2.441
1789992429.693986,27.832,-40.039,-40.527,4.883
1789992429.697861,53.711,-39.551,-37.598,12.207
1789992429.701737,55.664,-35.645,-32.715,14.648
1789992429.705612,41.504,-35.645,-31.738,16.113
1789992429.709487,31.250,-40.527,-34.668,17.578
1789992429.713362,42.969,-39.551,-29.297,19.043
1789992429.717237,60.059,-32.227,-20.508,20.996
1789992429.721112,44.434,-36.133,-36.621,23.926
1789992429.724987,30.273,-42.969,-43.457,10.742
1789992429.729272,0.000,-38.574,-45.898,0.977
1789992429.733147,0.000,-35.645,-53.711,12.207
1789992429.737022,0.000,-40.039,-45.410,16.113
1789992429.740897,0.000,-44.434,-46.387,8.789
1789992429.744773,0.000,-41.504,-50.781,15.137
1789992429.748648,0.000,-41.992,-41.016,10.742
1789992429.752523,0.000,-43.945,-36.621,6.836
1789992429.756398,0.000,-39.062,-34.180,23.438
1789992429.760274,0.000,-35.645,-27.832,20.508
1789992429.764149,0.000,-38.086,-29.785,15.137
1789992429.768024,0.000,-42.969,-43.457,15.137
1789992429.771899,0.000,-43.457,-49.316,0.488
1789992429.776105,20.508,-42.480,-47.852,-0.488
1789992429.779980,46.387,-41.504,-45.898,11.230
1789992429.783855,65.430,-38.086,-41.016,16.602
1789992429.787731,41.992,-40.527,-40.527,17.090
1789992429.791606,18.555,-41.992,-41.992,17.578
1789992429.795482,29.297,-34.668,-39.551,17.090
1789992429.799357,63.477,-35.156,-36.133,25.391
1789992429.803233,74.219,-31.738,-31.738,38.574
1789992429.807108,35.645,-26.855,-34.180,27.344
1789992429.810983,19.043,-32.227,-41.504,14.160
1789992429.814859,77.637,-36.133,-39.551,24.902
1789992429.818734,73.730,-33.691,-39.062,42.480
1789992429.822916,29.297,-29.297,-41.992,35.645
1789992429.826791,16.113,-34.180,-37.109,16.113
1789992429.830667,50.781,-34.180,-30.273,16.602
1789992429.834543,53.223,-34.180,-35.645,18.066
1789992429.838418,20.020,-41.504,-39.551,14.160
1789992429.842294,8.789,-42.969,-38.086,2.930
1789992429.846169,25.879,-37.109,-32.227,14.648
1789992429.850045,49.805,-32.715,-28.320,27.344
1789992429.853920,44.434,-40.527,-27.344,17.090
1789992429.857796,19.043,-48.828,-30.273,5.859
1789992429.861671,18.555,-51.270,-39.062,-2.441
1789992429.865547,45.898,-40.527,-29.785,-1.465
1789992429.869920,37.109,-28.320,-23.438,8.301
1789992429.873796,12.695,-34.668,-34.180,14.160
1789992429.877671,2.441,-42.969,-38.086,-1.953
1789992429.881547,41.992,-36.621,-30.273,1.465
1789992429.885423,35.156,-29.785,-37.109,14.160
1789992429.889299,-15.137,-32.715,-60.059,-5.859
1789992429.893174,-33.203,-33.691,-67.871,-26.367
1789992429.897050,-8.789,-26.855,-56.641,-32.227
1789992429.900926,-5.371,-22.949,-59.082,-39.062
1789992429.904802,-36.621,-25.391,-70.801,-45.898
1789992429.908678,-60.547,-29.785,-66.406,-62.988
1789992429.912554,-73.242,-26.855,-56.152,-76.660
1789992429.916906,-51.758,-22.461,-56.641,-83.984
1789992429.920782,-61.523,-25.391,-59.570,-89.844
1789992429.924658,-102.539,-27.344,-52.734,-98.633
1789992429.928534,-106.445,-26.367,-46.387,-115.234
1789992429.932410,-77.637,-25.879,-45.410,-103.027
1789992429.936286,-83.496,-25.391,-50.781,-95.703
1789992429.940162,-111.328,-24.902,-45.410,-101.074
1789992429.944038,-125.488,-26.367,-32.715,-108.398
1789992429.947914,-86.914,-24.414,-24.902,-110.352
1789992429.951790,-75.684,-23.926,-20.508,-105.957
1789992429.955666,-109.863,-34.180,-17.090,-122.559
1789992429.959542,-126.953,-43.457,-18.066,-121.094
1789992429.963856,-106.445,-46.387,-14.648,-114.258
1789992429.967732,-98.633,-48.340,-10.254,-109.375
1789992429.971608,-121.582,-42.480,-10.742,-98.145
1789992429.975485,-139.160,-40.527,-12.207,-101.562
1789992429.979361,-122.559,-45.898,-2.441,-102.051
1789992429.983237,-105.469,-39.551,4.883,-94.727
1789992429.987113,-122.559,-35.645,-10.254,-85.449
1789992429.990989,-133.301,-49.316,-14.648,-87.402
1789992429.994866,-121.582,-55.176,-7.812,-77.637
1789992429.998742,-81.543,-44.922,-2.441,-53.223
1789992430.002618,-73.730,-40.039,-2.930,-45.410
1789992430.006495,-99.121,-43.457,-6.348,-41.992
1789992430.010806,-103.027,-45.898,-6.836,-47.852
1789992430.014682,-63.477,-46.387,-16.602,-42.969
1789992430.018559,-46.875,-38.086,-32.227,-32.227
1789992430.022435,-59.570,-39.062,-35.156,-24.902
1789992430.026311,-78.125,-48.340,-41.016,-17.578
1789992430.030188,-36.621,-45.898,-53.223,-4.883
1789992430.034064,4.883,-43.457,-49.805,4.395
1789992430.037941,-12.207,-42.969,-44.922,10.254
1789992430.041817,-22.461,-44.922,-53.711,21.973
1789992430.045694,0.977,-45.898,-52.246,23.438
1789992430.049570,35.645,-45.410,-42.969,15.625
1789992430.053447,23.926,-46.387,-35.645,15.625
1789992430.057718,0.000,-43.945,-30.273,20.508
1789992430.061594,0.000,-44.922,-29.785,27.344
1789992430.065471,0.000,-43.945,-10.742,36.621
1789992430.069348,0.000,-40.039,-0.488,43.945
1789992430.073224,0.000,-44.434,-5.371,38.086
1789992430.077101,0.000,-45.898,-5.859,41.016
1789992430.080977,0.000,-45.410,-0.977,41.504
1789992430.084854,0.000,-50.293,-1.953,42.480
1789992430.088731,0.000,-48.828,-3.906,44.922
1789992430.092607,0.000,-46.387,1.953,38.086
1789992430.096484,0.000,-48.340,15.625,51.758
1789992430.100361,0.000,-49.805,18.555,65.918
1789992430.104593,61.523,-48.340,11.719,66.406
1789992430.108470,41.016,-44.922,7.812,52.246
1789992430.112347,58.105,-45.410,2.930,48.340
1789992430.116224,90.820,-48.340,4.395,66.406
1789992430.120100,82.031,-49.316,2.441,69.824
1789992430.123977,62.500,-43.945,-6.836,61.035
1789992430.127854,48.828,-38.086,-17.578,50.781
1789992430.131731,83.008,-39.062,-20.996,59.082
1789992430.135608,87.402,-42.969,-23.438,61.523
1789992430.139484,49.316,-42.480,-26.855,52.734
1789992430.143361,30.273,-43.457,-33.691,50.293
1789992430.147238,54.199,-44.434,-30.273,48.828
1789992430.151461,0.000,-41.504,-18.066,48.340
1789992430.155338,0.000,-36.621,-19.531,41.992
1789992430.159214,0.000,-41.016,-13.672,37.598
1789992430.163091,0.000,-43.457,-5.371,45.898
1789992430.166969,0.000,-35.645,2.441,44.922
1789992430.170846,0.000,-35.156,7.324,25.879
1789992430.174722,0.000,-37.109,7.812,20.996
1789992430.178599,0.000,-27.832,0.000,16.113
1789992430.182476,0.000,-15.137,5.859,13.184
1789992430.186353,0.000,-21.973,0.488,8.789
1789992430.190230,0.000,-24.902,-17.578,-5.371
1789992430.194107,0.000,-19.043,-26.855,-12.207
1789992430.198268,-48.340,-18.066,-40.527,-26.367
1789992430.202145,-56.152,-23.926,-48.340,-45.898
1789992430.206022,-105.957,-18.555,-50.781,-61.523
1789992430.209899,-127.441,-14.648,-55.176,-86.426
1789992430.213777,-107.422,-8.789,-58.105,-108.887
1789992430.217654,-100.586,-8.789,-59.570,-114.746
1789992430.221531,-117.676,-15.137,-68.848,-112.305
1789992430.225408,-141.602,-8.301,-83.008,-127.441
1789992430.229285,-127.441,-0.977,-80.566,-132.812
1789992430.233162,-90.820,-1.953,-72.754,-102.539
1789992430.237039,-105.469,-10.254,-74.219,-119.141
1789992430.240916,-131.836,-8.301,-62.988,-136.230
1789992430.245029,-122.559,0.488,-61.523,-130.859
1789992430.248906,-90.332,-3.418,-60.547,-107.422
1789992430.252784,-85.449,-5.859,-43.945,-83.984
1789992430.256661,-99.121,-3.906,-39.062,-88.867
1789992430.260538,-104.004,-5.371,-40.527,-97.168
1789992430.264415,-69.336,-13.184,-38.086,-85.938
1789992430.268292,-62.500,-13.184,-36.621,-68.848
1789992430.272170,-104.980,-16.602,-42.480,-77.637
1789992430.276047,-113.281,-32.715,-47.363,-74.219
1789992430.279924,-64.941,-37.109,-41.504,-52.246
1789992430.283801,-40.527,-33.691,-32.715,-46.387
1789992430.287678,-59.570,-39.551,-27.832,-58.105
1789992430.292016,-73.730,-43.945,-39.062,-53.711
1789992430.295893,-44.922,-43.457,-41.016,-46.387
1789992430.299771,-14.160,-46.387,-37.598,-40.527
1789992430.303648,-20.996,-45.410,-45.410,-25.879
1789992430.307525,-25.391,-42.969,-47.363,-7.812
1789992430.311403,-6.836,-40.039,-42.969,-6.348
1789992430.315280,24.414,-36.621,-40.039,-6.836
1789992430.319158,29.785,-41.992,-42.969,-0.488
1789992430.323035,18.555,-50.781,-39.062,10.254
1789992430.326913,10.254,-50.293,-44.922,15.137
1789992430.330790,54.199,-46.387,-51.758,24.902
1789992430.334667,70.312,-48.340,-53.711,30.762
1789992430.338999,41.992,-52.246,-59.082,21.973
1789992430.342876,27.344,-51.270,-59.570,27.832
1789992430.346754,62.012,-42.480,-49.316,43.945
1789992430.350631,98.633,-44.434,-43.457,57.617
1789992430.354509,91.309,-51.270,-44.922,62.988
1789992430.358387,73.242,-44.922,-46.875,60.547
1789992430.362264,76.660,-39.551,-40.039,61.523
1789992430.366142,97.168,-49.805,-29.297,71.777
1789992430.370020,88.379,-62.988,-39.551,89.844
1789992430.373897,71.289,-66.406,-37.598,93.262
1789992430.377775,70.312,-72.754,-20.996,78.125
1789992430.381653,110.352,-67.383,-19.043,84.473
1789992430.385930,112.793,-58.594,-21.973,93.262
1789992430.389808,79.590,-60.059,-20.996,96.680
1789992430.393686,63.965,-62.012,-22.461,95.215
1789992430.397564,98.145,-53.223,-13.184,93.262
1789992430.401442,123.535,-48.828,-5.859,97.656
1789992430.405319,109.375,-50.293,-5.859,101.562
1789992430.409197,105.469,-47.363,-7.324,102.539
1789992430.413075,127.441,-41.016,-5.371,99.609
1789992430.416953,147.949,-48.340,-13.184,113.281
1789992430.420830,126.953,-52.734,-25.879,111.816
1789992430.424708,104.004,-48.340,-25.391,90.332
1789992430.428586,114.258,-47.363,-21.973,89.844
1789992430.432829,139.648,-43.457,-19.043,93.750
1789992430.436707,129.883,-46.875,-29.297,83.496
1789992430.440585,113.281,-45.410,-47.852,75.684
1789992430.444463,104.492,-45.410,-59.570,69.336
1789992430.448341,121.094,-49.316,-63.477,67.871
1789992430.452219,120.117,-50.781,-58.105,81.543
1789992430.456097,91.797,-57.617,-62.988,88.867
1789992430.459975,84.961,-57.617,-75.684,93.262
1789992430.463853,107.422,-50.293,-62.988,91.797
1789992430.467731,109.863,-50.293,-46.387,83.984
1789992430.471609,84.961,-49.316,-48.340,87.891
1789992430.475487,62.012,-47.852,-50.293,97.168
1789992430.479671,78.613,-43.945,-50.781,106.934
1789992430.483550,102.051,-50.293,-53.711,109.375
1789992430.487428,83.984,-55.176,-48.828,108.398
1789992430.491306,66.406,-49.805,-41.992,98.633
1789992430.495184,69.336,-51.758,-38.086,84.961
1789992430.499062,98.633,-51.270,-42.969,86.914
1789992430.502940,90.332,-53.711,-50.293,94.238
1789992430.506818,68.848,-52.734,-52.246,94.238
1789992430.510696,65.918,-45.898,-57.617,88.867
1789992430.514575,96.191,-45.410,-62.988,88.867
1789992430.518453,109.375,-42.969,-62.988,98.145
1789992430.522331,87.402,-38.574,-48.340,100.098
1789992430.526486,64.453,-37.598,-51.758,75.195
1789992430.530364,92.285,-35.645,-49.316,75.195
1789992430.534242,110.352,-34.668,-29.297,90.332
1789992430.538121,82.031,-37.598,-30.273,72.266
1789992430.541999,52.246,-41.992,-28.809,49.805
1789992430.545877,61.035,-43.945,-29.297,40.039
1789992430.549755,90.820,-43.457,-47.852,58.594
1789992430.553633,81.055,-45.410,-51.270,64.941
1789992430.557512,40.039,-48.340,-33.203,42.480
1789992430.561390,24.414,-47.363,-34.668,49.316
1789992430.565268,61.523,-42.969,-54.199,67.383
1789992430.569146,51.270,-48.340,-61.035,62.500
1789992430.573280,11.719,-56.152,-62.988,48.828
1789992430.577158,8.789,-54.688,-65.918,49.805
1789992430.581036,37.109,-52.246,-33.691,60.059
1789992430.584915,30.762,-53.223,-15.625,60.059
1789992430.588793,12.207,-51.270,9.277,51.758
1789992430.592671,-0.977,-51.758,78.613,49.805
1789992430.596550,26.367,-54.199,124.023,60.547
1789992430.600428,57.129,-50.781,158.691,53.711
1789992430.604306,39.062,-48.828,169.434,41.504
1789992430.608185,22.949,-50.293,155.273,41.016
1789992430.612063,37.598,-49.316,153.320,42.969
1789992430.615941,59.082,-47.363,167.480,53.223
1789992430.620038,44.434,-52.734,178.223,43.945
1789992430.623916,28.320,-54.688,187.988,25.879
1789992430.627795,39.062,-49.805,214.844,41.992
1789992430.631673,70.312,-42.969,219.727,52.734
1789992430.635551,69.336,-41.504,188.965,49.805
1789992430.639430,40.039,-44.922,167.969,55.176
1789992430.643308,14.648,-43.457,172.363,41.016
1789992430.647187,30.273,-47.852,179.199,42.969
1789992430.651065,33.691,-50.781,164.551,51.758
1789992430.654944,8.301,-52.734,155.762,39.062
1789992430.658822,-7.812,-51.758,155.762,41.992
1789992430.662701,11.719,-52.734,160.156,42.480
1789992430.667012,27.344,-55.176,164.551,43.945
1789992430.670891,13.672,-50.781,176.270,40.039
1789992430.674770,-7.324,-46.387,164.551,12.695
1789992430.678648,7.324,-41.504,200.195,12.207
1789992430.682527,40.039,-46.387,340.332,21.973
1789992430.686405,27.832,-53.711,419.434,19.043
1789992430.690284,8.301,-52.734,423.828,24.414
1789992430.694163,-5.859,-49.805,414.551,24.414
1789992430.698041,31.250,-46.875,398.438,27.832
1789992430.701920,44.922,-45.410,388.184,37.598
1789992430.705799,14.648,-41.016,385.254,24.902
1789992430.709677,3.418,-41.992,367.676,16.602
1789992430.713938,37.598,-41.992,354.980,27.344
1789992430.717817,62.012,-42.969,359.375,39.551
1789992430.721696,39.062,-47.852,354.492,35.156
1789992430.725574,11.230,-48.340,326.660,21.484
1789992430.729453,21.973,-48.828,294.434,20.020
1789992430.733332,48.340,-47.852,271.484,23.926
1789992430.737211,31.738,-48.340,252.441,20.508
1789992430.741090,9.277,-46.387,213.379,20.996
1789992430.744968,29.785,-40.527,177.734,32.227
1789992430.748847,66.406,-35.645,170.410,45.898
1789992430.752726,56.152,-34.668,101.074,41.992
1789992430.756605,23.438,-36.133,-38.574,32.715
1789992430.760837,12.695,-37.598,-126.953,23.438
1789992430.764716,49.316,-36.133,-146.973,34.180
1789992430.768595,65.918,-37.109,-165.039,41.504
1789992430.772474,41.992,-36.621,-182.617,25.391
1789992430.776352,24.414,-30.762,-190.918,19.043
1789992430.780231,51.270,-28.809,-206.055,30.273
1789992430.784110,69.336,-27.344,-226.074,39.062
1789992430.787989,34.180,-25.879,-263.184,35.645
1789992430.791868,9.766,-25.879,-291.016,36.621
1789992430.795747,27.832,-24.902,-293.945,12.695
1789992430.799626,55.176,-27.344,-309.082,3.906
1789992430.803505,41.016,-35.156,-331.543,23.926
1789992430.807717,20.996,-43.457,-299.316,18.066
1789992430.811596,28.809,-41.992,-233.887,19.043
1789992430.815475,47.852,-35.645,-234.375,30.762
1789992430.819355,39.551,-38.086,-273.438,26.367
1789992430.823234,16.113,-44.922,-308.105,6.348
1789992430.827113,11.230,-41.504,-315.918,7.324
1789992430.830992,42.480,-36.621,-268.555,19.043
1789992430.834871,45.898,-39.551,-217.285,27.344
1789992430.838750,15.137,-41.504,-188.965,21.484
1789992430.842629,0.977,-41.016,-179.688,0.000
1789992430.846508,18.555,-42.480,-192.383,-0.977
1789992430.850387,27.832,-46.387,-208.008,15.137
1789992430.854588,8.301,-42.969,-212.891,13.184
1789992430.858467,-12.695,-42.480,-213.379,-2.441
1789992430.862346,2.930,-44.922,-204.590,1.465
1789992430.866225,15.137,-41.504,-161.621,9.766
1789992430.870105,-3.906,-42.480,-126.953,8.789
1789992430.873984,-29.785,-44.434,-132.324,6.836
1789992430.877863,-31.250,-42.969,-146.484,-6.348
1789992430.881742,3.418,-41.016,-134.766,-3.418
1789992430.885622,5.859,-29.297,-105.469,6.348
1789992430.889501,-14.648,-30.273,-105.957,5.859
1789992430.893380,-20.996,-31.738,-110.352,14.648
1789992430.897259,7.324,-30.762,-94.238,8.301
1789992430.901431,12.207,-36.133,-83.984,-7.324
1789992430.905310,-1.953,-38.574,-90.332,7.812
1789992430.909190,-11.230,-35.156,-124.023,29.785
1789992430.913069,-26.855,-38.086,-165.527,7.324
1789992430.916949,-19.531,-41.016,-170.898,-5.859
1789992430.920828,-20.508,-38.086,-168.457,11.230
1789992430.924707,-42.969,-49.805,-181.152,10.742
1789992430.928586,-39.062,-52.734,-186.035,14.648
1789992430.932466,-14.160,-44.434,-189.941,23.438
1789992430.936345,-18.555,-52.734,-219.727,23.926
1789992430.940225,-42.969,-56.641,-253.418,15.625
1789992430.944104,-47.852,-52.734,-292.480,15.625
1789992430.948222,-15.137,-54.199,-352.051,28.320
1789992430.952101,-11.230,-60.059,-396.484,29.785
1789992430.955981,-33.691,-61.523,-421.387,24.414
1789992430.959860,-35.156,-57.617,-442.871,11.719
1789992430.963740,-7.324,-53.711,-458.496,5.859
1789992430.967619,0.488,-53.223,-458.008,14.160
1789992430.971498,-13.672,-47.852,-434.082,25.391
1789992430.975378,-25.879,-43.945,-403.320,22.461
1789992430.979257,-8.301,-41.992,-381.348,17.578
1789992430.983137,16.602,-32.715,-389.160,19.531
1789992430.987016,-4.395,-29.297,-410.645,13.184
1789992430.990896,-32.715,-35.156,-433.594,7.324
1789992430.994996,0.000,-31.738,-433.105,3.906
1789992430.998876,0.000,-28.809,-411.133,4.883
1789992431.002755,0.000,-36.621,-397.949,5.859
1789992431.006635,0.000,-41.504,-387.207,2.930
1789992431.010514,0.000,-41.504,-361.328,-6.836
1789992431.014394,0.000,-40.039,-268.066,4.395
1789992431.018274,0.000,-39.551,-176.270,13.672
1789992431.022153,0.000,-38.086,-157.715,-0.488
1789992431.026033,0.000,-39.062,-193.359,7.324
1789992431.029912,0.000,-33.691,-219.727,27.832
1789992431.033792,0.000,-30.273,-248.535,28.320
1789992431.037671,0.000,-32.227,-282.227,26.367
1789992431.041350,-19.531,-31.250,-268.555,24.902
1789992431.045230,8.301,-36.621,-240.234,15.137
1789992431.049109,-2.441,-41.504,-224.609,20.020
1789992431.052989,-34.668,-38.086,-218.262,27.344
1789992431.056868,-30.273,-40.039,-221.680,13.672
1789992431.060747,5.371,-39.551,-220.703,8.789
1789992431.064627,-0.488,-33.691,-208.496,21.973
1789992431.068506,-20.020,-34.180,-230.957,23.926
1789992431.072386,-24.902,-36.621,-266.113,9.277
1789992431.076265,15.137,-41.992,-319.336,-0.977
1789992431.080145,35.645,-39.551,-396.484,5.859
1789992431.084024,3.418,-31.250,-454.102,13.184
1789992431.088281,-1.953,-30.273,-459.961,6.348
1789992431.092161,-5.371,-29.297,-428.223,3.906
1789992431.096040,20.996,-30.273,-362.793,8.789
1789992431.099920,35.156,-31.738,-236.328,23.438
1789992431.103800,20.508,-29.785,-111.328,33.203
1789992431.107679,0.000,-31.250,-28.320,27.832
1789992431.111559,8.301,-30.762,23.926,18.555
1789992431.115439,31.250,-29.297,27.832,11.719
1789992431.119318,15.625,-29.785,26.855,24.902
1789992431.123198,-11.719,-31.250,38.086,29.297
1789992431.127078,-10.254,-32.227,60.059,18.555
1789992431.130957,19.531,-33.691,97.168,32.227
1789992431.135228,15.137,-38.574,115.723,29.785
1789992431.139108,-11.230,-35.156,43.945,11.719
1789992431.142988,-25.391,-31.738,-57.617,7.324
1789992431.146868,10.742,-31.250,-82.520,11.230
1789992431.150747,36.621,-38.086,-93.750,30.762
1789992431.154627,18.066,-39.551,-98.145,47.852
1789992431.158507,-16.113,-31.250,-106.934,22.461
1789992431.162387,-5.371,-24.902,-163.086,-12.695
1789992431.166266,25.391,-15.137,-214.355,7.324
1789992431.170146,16.113,-4.883,-225.586,21.973
1789992431.174026,-7.324,-9.277,-255.371,-3.906
1789992431.177906,8.789,-7.324,-168.945,-16.602
1789992431.182144,42.969,-0.488,99.609,0.000
1789992431.186024,52.246,-5.859,242.676,0.000
1789992431.189904,27.344,-10.254,274.902,0.000
1789992431.193784,9.277,-10.742,294.434,0.000
1789992431.197664,42.969,-14.648,305.176,0.000
1789992431.201544,55.664,-13.184,317.383,0.000
1789992431.205424,39.551,-12.695,322.754,0.000
1789992431.209304,26.367,-18.555,299.805,0.000
1789992431.213184,42.969,-20.020,266.602,0.000
1789992431.217064,52.246,-23.926,246.582,0.000
1789992431.220944,34.668,-26.855,197.266,0.000
1789992431.224824,14.648,-32.227,121.094,0.000
1789992431.228998,33.203,-34.180,80.566,-1.465
1789992431.232878,63.477,-26.367,79.590,26.367
1789992431.236758,54.199,-26.367,61.035,31.250
1789992431.240638,29.785,-30.762,17.578,30.762
1789992431.244519,43.945,-26.367,-4.883,25.879
1789992431.248399,76.172,-24.902,-14.160,21.973
1789992431.252279,62.988,-24.902,-25.391,22.949
1789992431.256159,43.457,-24.414,-40.039,29.785
1789992431.260039,36.133,-26.855,-89.844,25.879
1789992431.263919,58.105,-26.855,-246.582,21.973
1789992431.267799,58.105,-24.902,-340.820,28.809
1789992431.271679,38.574,-26.367,-324.707,16.113
1789992431.275844,0.000,-26.367,-348.145,7.324
1789992431.279724,0.000,-18.555,-314.941,20.996
1789992431.283604,0.000,-23.438,-233.398,28.809
1789992431.287484,0.000,-29.297,-164.551,23.438
1789992431.291364,0.000,-25.391,-89.355,24.414
1789992431.295245,0.000,-24.414,-20.508,20.020
1789992431.299125,0.000,-22.949,35.645,31.738
1789992431.303005,0.000,-20.996,59.570,38.574
1789992431.306885,0.000,-26.855,41.016,9.277
1789992431.310766,0.000,-32.715,1.465,11.230
1789992431.314646,0.000,-32.227,-20.020,27.344
1789992431.318526,0.000,-32.227,-31.250,26.855
1789992431.322643,12.695,-38.086,-58.594,20.996
1789992431.326523,19.531,-42.969,-92.285,19.043
1789992431.330403,58.105,-40.527,-104.980,25.879
1789992431.334283,64.941,-36.133,-96.680,31.250
1789992431.338164,37.109,-39.062,-101.074,20.996
1789992431.342044,18.066,-43.945,-123.047,6.836
1789992431.345924,49.805,-37.598,-113.770,22.949
1789992431.349804,67.383,-31.250,-84.473,20.996
1789992431.353685,41.992,-31.250,-73.242,7.812
1789992431.357565,32.227,-28.320,-65.430,11.230
1789992431.361445,39.062,-24.902,-57.617,11.719
1789992431.365325,71.777,-20.996,-64.453,21.973
1789992431.369423,72.754,-18.066,-66.406,20.020
1789992431.373303,44.434,-20.508,-48.828,16.602
1789992431.377184,35.156,-23.438,-29.297,20.020
1789992431.381064,58.594,-30.273,-21.484,17.578
1789992431.384945,54.688,-32.715,-37.598,21.484
1789992431.388825,26.367,-38.086,-48.828,17.578
1789992431.392705,23.438,-41.504,-56.152,9.277
1789992431.396586,57.129,-31.738,-60.547,16.602
1789992431.400466,53.223,-28.320,-64.941,23.438
1789992431.404346,17.090,-30.273,-110.352,35.156
1789992431.408227,4.883,-27.832,-212.891,27.832
1789992431.412107,19.531,-31.738,-285.645,24.902
1789992431.416394,18.555,-35.645,-328.613,29.297
1789992431.420274,-10.742,-41.504,-373.047,13.184
1789992431.424155,-44.922,-41.992,-409.668,10.254
1789992431.428035,-27.832,-36.621,-431.641,9.766
1789992431.431916,4.395,-34.668,-437.500,10.742
1789992431.435796,-3.906,-32.227,-421.387,16.113
1789992431.439677,-20.996,-31.738,-383.301,20.508
1789992431.443558,-20.020,-31.738,-360.352,13.672
1789992431.447438,11.719,-40.039,-356.445,6.836
1789992431.451319,11.719,-48.340,-357.422,17.090
1789992431.455199,-20.508,-39.551,-337.402,18.066
1789992431.459080,-34.180,-40.527,-326.172,-6.348
1789992431.463337,-1.953,-46.875,-325.195,-11.719
1789992431.467218,6.348,-44.922,-328.125,5.859
1789992431.471098,-23.926,-44.922,-348.633,13.672
1789992431.474979,-39.062,-48.828,-361.328,2.930
1789992431.478860,-6.836,-47.363,-349.121,-3.906
1789992431.482741,16.602,-37.109,-342.773,12.207
1789992431.486621,-3.906,-36.133,-345.703,11.719
1789992431.490502,-18.066,-32.715,-341.797,6.836
1789992431.494383,0.000,-36.133,-351.562,17.090
1789992431.498263,23.926,-41.016,-350.098,21.484
1789992431.502144,4.883,-33.691,-320.312,7.812
1789992431.506025,-26.367,-35.156,-308.105,-10.254
1789992431.510246,-2.930,-32.715,-300.781,13.184
1789992431.514127,26.367,-33.691,-272.949,28.809
1789992431.518008,-26.855,-47.363,-253.906,8.789
1789992431.521889,-66.895,-56.641,-243.652,-5.859
1789992431.525770,-59.570,-55.176,-229.980,-18.066
1789992431.529650,-39.551,-50.293,-220.703,-15.625
1789992431.533531,-37.109,-55.664,-224.609,-13.672
1789992431.537412,-52.246,-60.059,-233.887,-6.348
1789992431.541293,-82.520,-61.523,-220.215,-1.953
1789992431.545174,-57.129,-63.477,-194.824,-4.883
1789992431.549055,-29.297,-56.152,-187.988,8.301
1789992431.552935,-55.664,-48.828,-193.359,14.648
1789992431.557123,-66.895,-57.129,-193.848,4.395
