timestamp,TP9,AF7,AF8,TP10
1789912353.105426,0.000,-0.488,0.000,0.000
1789912353.109286,-0.488,-0.488,0.000,0.000
1789912353.113145,-0.977,0.488,-0.977,-3.906
1789912353.117005,0.977,-1.465,0.977,7.324
1789912353.120864,-10.254,6.348,-8.789,-43.457
1789912353.124724,-28.809,16.602,-32.227,-118.164
1789912353.128583,-37.598,13.672,-41.016,-126.465
1789912353.132443,-43.945,8.301,-40.527,-119.141
1789912353.136303,-37.598,8.789,-38.086,-105.469
1789912353.140162,-22.949,16.602,-29.785,-103.516
1789912353.144022,-28.809,18.555,-32.227,-104.980
1789912353.147882,-31.738,11.719,-31.738,-105.469
1789912353.150608,-22.949,16.113,-23.438,-86.914
1789912353.154373,-27.832,19.043,-33.203,-99.609
1789912353.158138,-40.039,14.648,-35.645,-131.836
1789912353.161903,-45.898,15.625,-35.645,-133.301
1789912353.165668,-40.039,12.207,-42.969,-121.094
1789912353.169434,-26.367,14.160,-43.457,-117.676
1789912353.173199,-29.785,17.578,-43.945,-116.699
1789912353.176964,-46.875,15.137,-48.340,-104.492
1789912353.180729,-59.082,20.996,-45.898,-103.516
1789912353.184494,-55.176,16.113,-37.598,-113.770
1789912353.188259,-37.598,1.465,-26.367,-104.492
1789912353.192024,-23.926,10.254,-22.461,-107.422
1789912353.192934,-19.531,11.230,-28.320,-112.793
1789912353.196580,-31.250,6.348,-23.926,-93.262
1789912353.200226,-42.969,6.348,-21.973,-103.027
1789912353.203872,-44.922,5.859,-23.438,-115.723
1789912353.207518,-37.598,9.277,-24.414,-96.191
1789912353.211164,-30.762,6.348,-25.879,-90.332
1789912353.214811,-33.203,8.301,-28.809,-95.703
1789912353.218457,-41.016,15.137,-27.344,-93.750
1789912353.222103,-52.734,14.160,-26.367,-85.449
1789912353.225749,-56.152,10.254,-27.344,-81.543
1789912353.229395,-53.711,10.254,-25.879,-89.355
1789912353.233041,-56.152,14.160,-24.414,-83.496
1789912353.232766,-50.293,12.207,-18.555,-75.684
1789912353.236303,-35.156,13.672,-17.578,-83.008
1789912353.239841,-39.062,17.578,-21.484,-88.867
1789912353.243378,-51.758,8.301,-22.949,-82.031
1789912353.246915,-41.992,5.371,-24.902,-84.961
1789912353.250452,-39.062,14.160,-24.414,-92.773
1789912353.253989,-49.316,16.113,-20.020,-83.008
1789912353.257527,-45.410,15.137,-23.926,-79.102
1789912353.261064,-37.598,14.648,-27.832,-89.355
1789912353.264601,-36.133,11.230,-25.879,-83.496
1789912353.268138,-35.156,12.207,-24.414,-75.195
1789912353.271675,-30.762,10.254,-24.902,-78.613
1789912353.271450,-20.996,10.254,-21.973,-71.289
1789912353.274909,-25.879,9.766,-18.555,-59.082
1789912353.278368,-27.832,1.953,-26.367,-62.988
1789912353.281827,-28.320,-1.953,-27.832,-72.266
1789912353.285285,-38.574,0.000,-23.926,-70.801
1789912353.288744,-35.156,2.930,-26.367,-68.359
1789912353.292203,-41.992,1.953,-28.320,-64.941
1789912353.295662,-52.734,4.395,-28.809,-66.895
1789912353.299121,-51.758,-2.441,-26.367,-72.266
1789912353.302580,-47.852,-5.859,-20.508,-65.430
1789912353.306039,-33.691,1.953,-18.555,-75.684
1789912353.309497,-25.391,5.859,-17.578,-81.055
1789912353.310106,-49.316,3.906,-15.625,-69.336
1789912353.313517,-53.711,1.953,-16.113,-65.430
1789912353.316929,-47.363,2.441,-16.113,-71.289
1789912353.320340,-61.035,-3.906,-24.902,-74.219
1789912353.323751,-56.152,-5.859,-27.832,-68.848
1789912353.327163,-51.270,-5.371,-23.438,-67.383
1789912353.330574,-55.176,-8.789,-26.855,-69.824
1789912353.333985,-50.293,-5.859,-27.344,-61.035
1789912353.337397,-44.434,3.906,-18.555,-56.641
1789912353.340808,-52.246,3.418,-17.090,-62.012
1789912353.344219,-52.734,4.883,-16.113,-60.059
1789912353.347631,-34.180,16.602,-5.859,-52.246
1789912353.351345,-15.625,20.508,-0.488,-40.039
1789912353.354760,-20.020,20.020,-0.488,-31.738
1789912353.358176,-31.250,14.648,-1.953,-24.902
1789912353.361591,-30.762,8.301,5.859,-31.250
1789912353.365007,-45.898,12.695,-0.488,-42.969
1789912353.368423,-49.316,9.277,-8.301,-55.176
1789912353.371838,-42.480,6.348,-3.906,-56.641
1789912353.375253,-46.387,10.742,-2.441,-62.012
1789912353.378669,-51.270,8.301,-2.930,-59.082
1789912353.382085,-41.504,6.348,-5.859,-32.227
1789912353.385500,-32.715,3.418,-4.883,-16.602
1789912353.388916,-51.270,-2.930,-6.836,-39.551
1789912353.393051,-75.195,-7.812,-7.812,-70.801
1789912353.396475,-76.660,-4.883,9.277,-66.895
1789912353.399899,-66.406,0.488,20.996,-49.805
1789912353.403323,-59.570,-3.418,14.648,-37.109
1789912353.406747,-69.824,-8.301,17.578,-47.852
1789912353.410172,-80.566,-9.766,18.555,-52.246
1789912353.413596,-78.125,-8.789,15.137,-56.152
1789912353.417020,-77.148,-12.695,15.625,-70.312
1789912353.420444,-72.266,-13.184,14.648,-45.410
1789912353.423868,-67.871,-5.371,15.625,-20.508
1789912353.427292,-64.941,-1.465,20.020,-39.551
1789912353.430716,-58.105,2.441,23.438,-45.410
1789912353.435217,-38.574,8.301,27.832,-33.691
1789912353.438652,-34.180,10.742,30.273,-37.109
1789912353.442088,-43.945,8.301,33.691,-20.508
1789912353.445523,-55.664,8.301,38.086,8.789
1789912353.448958,-53.711,12.207,35.645,4.883
1789912353.452394,-41.992,14.648,36.621,-18.555
1789912353.455829,-39.062,15.625,36.621,-14.648
1789912353.459264,-24.414,14.648,40.039,8.301
1789912353.462699,-14.648,18.066,47.363,13.672
1789912353.466135,-21.484,23.926,47.363,4.883
1789912353.469570,-18.066,31.738,54.688,9.766
1789912353.473006,-18.066,36.133,60.547,18.555
1789912353.477806,-15.137,31.250,51.270,17.578
1789912353.481254,-7.324,30.273,46.387,9.766
1789912353.484702,5.859,36.133,51.270,8.301
1789912353.488150,4.395,37.109,49.805,6.836
1789912353.491598,-2.441,41.504,49.316,16.602
1789912353.495046,-1.465,39.551,59.570,23.926
1789912353.498494,12.695,39.062,59.082,20.508
1789912353.501942,14.648,44.434,50.781,42.480
1789912353.505389,3.906,41.504,50.781,51.270
1789912353.508837,4.883,38.574,50.293,38.086
1789912353.512285,2.441,40.039,51.758,35.156
1789912353.515733,0.000,39.551,51.270,21.973
1789912353.520780,9.277,47.363,50.781,40.527
1789912353.524241,14.648,54.688,53.223,53.711
1789912353.527702,15.137,50.293,50.293,28.320
1789912353.531164,22.949,46.387,51.758,41.016
1789912353.534625,11.230,41.992,50.781,53.223
1789912353.538086,4.883,38.086,41.992,41.016
1789912353.541548,-3.418,35.156,35.645,36.621
1789912353.545009,-23.438,38.574,34.668,36.133
1789912353.548470,-21.484,44.434,38.086,30.762
1789912353.551931,-9.766,41.016,34.180,34.180
1789912353.555393,-7.812,36.133,29.785,41.504
1789912353.558854,-5.859,32.715,34.180,31.738
1789912353.564069,3.906,35.645,35.645,21.484
1789912353.567544,0.000,36.621,32.715,29.785
1789912353.571018,-8.301,30.762,27.344,26.367
1789912353.574493,-2.441,33.203,30.273,4.883
1789912353.577968,-5.859,34.668,34.180,10.254
1789912353.581442,-14.160,26.855,28.809,22.949
1789912353.584917,-19.531,22.949,28.320,34.668
1789912353.588391,-18.066,27.344,25.391,42.480
1789912353.591866,-7.324,26.855,20.508,41.992
1789912353.595340,-9.277,19.043,17.090,33.691
1789912353.598815,-10.254,21.973,16.602,28.809
1789912353.602289,-7.324,25.391,9.766,35.156
1789912353.607652,-35.156,18.555,0.977,19.531
1789912353.611140,-48.340,16.602,3.418,7.324
1789912353.614627,-41.504,19.531,7.324,17.578
1789912353.618115,-31.738,25.391,6.836,16.113
1789912353.621603,-25.391,26.367,5.859,-3.906
1789912353.625090,-37.598,22.949,9.277,-20.020
1789912353.628578,-41.992,19.531,8.301,-20.508
1789912353.632066,-37.598,14.648,6.348,-0.488
1789912353.635553,-25.391,12.695,6.836,10.254
1789912353.639041,-32.715,11.230,2.441,12.207
1789912353.642529,-43.457,11.230,1.465,9.766
1789912353.646016,-41.504,9.766,2.930,0.488
1789912353.651445,-58.594,7.812,2.930,-4.395
1789912353.654945,-64.941,10.254,0.977,-5.859
1789912353.658445,-56.641,11.230,-2.930,-6.836
1789912353.661945,-51.758,6.348,1.953,-0.977
1789912353.665445,-45.410,3.418,9.766,1.465
1789912353.668945,-34.668,5.859,9.766,3.418
1789912353.672445,-43.457,0.000,3.418,10.254
1789912353.675946,-60.059,-2.441,10.254,7.812
1789912353.679446,-50.781,3.418,15.625,2.930
1789912353.682946,-29.785,0.488,3.906,-9.277
1789912353.686446,-44.434,-0.977,5.859,-8.789
1789912353.689946,-71.289,-1.953,5.371,-12.207
1789912353.697057,-77.637,-2.930,5.859,-7.324
1789912353.700579,-67.383,1.465,6.836,7.812
1789912353.704100,-68.359,-0.488,1.953,0.000
1789912353.707622,-68.848,-1.953,1.465,-10.742
1789912353.711143,-61.035,2.930,7.812,-7.324
1789912353.714665,-64.453,1.953,9.766,1.953
1789912353.718187,-62.988,0.488,11.719,-3.418
1789912353.721708,-63.965,-6.348,14.160,-26.855
1789912353.725230,-66.406,-9.277,12.695,-8.789
1789912353.728752,-55.664,-1.465,13.672,22.949
1789912353.732273,-40.527,2.441,13.672,11.719
1789912353.735795,-46.875,5.859,8.789,-17.090
1789912353.742687,-49.805,6.348,8.301,0.488
1789912353.746228,-31.250,4.883,7.324,18.555
1789912353.749768,-48.340,2.441,3.906,4.395
1789912353.753308,-68.359,1.953,9.766,9.766
1789912353.756848,-65.430,1.465,16.602,9.766
1789912353.760389,-73.242,-2.930,15.137,0.488
1789912353.763929,-74.219,-5.859,11.719,1.465
1789912353.767469,-63.477,-2.930,9.277,8.789
1789912353.771010,-56.641,0.000,11.719,28.320
1789912353.774550,-59.570,1.465,12.695,36.621
1789912353.778090,-55.664,4.883,14.648,23.926
1789912353.781631,-44.922,7.812,20.508,5.859
1789912353.788355,-43.457,5.859,19.531,-0.488
1789912353.791912,-59.570,3.418,11.719,4.883
1789912353.795469,-62.988,4.395,7.812,2.441
1789912353.799026,-44.922,5.859,12.207,2.441
1789912353.802583,-54.688,-0.488,10.254,-9.766
1789912353.806140,-73.730,-5.371,10.254,-2.930
1789912353.809697,-77.148,-5.371,9.766,17.090
1789912353.813254,-77.637,-8.301,4.395,4.883
1789912353.816811,-78.125,-16.602,-1.953,-2.441
1789912353.820368,-79.590,-19.043,-2.930,-2.930
1789912353.823925,-90.820,-17.578,-5.859,-14.160
1789912353.827481,-94.727,-15.625,-3.418,-13.672
1789912353.834051,-86.914,-8.301,1.953,-11.719
1789912353.837622,-86.914,-5.371,3.906,-1.465
1789912353.841194,-78.613,-9.277,8.301,-8.789
1789912353.844766,-74.707,-10.254,3.418,-19.043
1789912353.848337,-69.824,-7.324,0.977,-1.465
1789912353.851909,-53.711,-8.301,3.418,2.930
1789912353.855481,-47.852,-8.301,1.465,2.441
1789912353.859052,-62.500,-9.277,-1.465,-3.906
1789912353.862624,-87.402,-13.672,-4.395,-25.391
1789912353.866196,-87.891,-16.113,-6.836,-25.391
1789912353.869767,-69.336,-13.184,-3.906,9.766
1789912353.873339,-74.219,-9.766,-0.488,22.949
1789912353.879730,-89.355,-14.648,-2.930,8.301
1789912353.883315,-86.914,-18.555,-5.859,-3.418
1789912353.886899,-88.379,-19.531,-6.836,-9.277
1789912353.890484,-90.332,-20.508,-6.348,-6.836
1789912353.894069,-80.078,-14.648,-5.371,7.324
1789912353.897654,-83.008,-15.137,-3.906,-0.977
1789912353.901238,-90.332,-18.066,-6.836,-6.348
1789912353.904823,-87.402,-15.137,-10.254,2.441
1789912353.908408,-96.191,-19.043,-13.672,-19.043
1789912353.911993,-90.820,-22.949,-15.137,-29.785
1789912353.915577,-82.031,-20.996,-14.648,-31.738
1789912353.919162,-89.355,-20.020,-16.113,-28.809
1789912353.925348,-77.637,-19.531,-14.160,-6.836
1789912353.928945,-84.473,-16.113,-6.836,2.930
1789912353.932541,-92.773,-14.648,-1.953,5.859
1789912353.936137,-89.355,-17.578,0.488,-0.488
1789912353.939733,-100.586,-17.578,-0.977,-7.324
1789912353.943329,-99.121,-15.625,-1.953,-1.465
1789912353.946925,-100.586,-22.949,0.000,5.371
1789912353.950521,-101.562,-21.484,-4.883,12.207
1789912353.954118,-86.914,-13.184,-5.859,-1.465
1789912353.957714,-83.984,-15.625,-6.348,-18.555
1789912353.961310,-92.285,-20.508,-8.301,-19.043
1789912353.964906,-99.609,-22.461,-12.207,-13.672
1789912353.972428,-112.305,-21.973,-9.766,-4.395
1789912353.976041,-115.723,-23.438,-2.930,6.836
1789912353.979653,-91.797,-22.461,-0.488,25.879
1789912353.983266,-84.961,-18.066,-4.395,15.625
1789912353.986878,-96.191,-19.043,-4.883,-11.719
1789912353.990491,-90.820,-22.949,-2.441,-13.184
1789912353.994103,-74.707,-21.973,-2.930,-16.113
1789912353.997716,-75.195,-26.367,-1.465,-11.719
1789912354.001328,-88.867,-22.461,-6.836,7.812
1789912354.004941,-83.008,-18.066,-10.254,11.230
1789912354.008553,-70.312,-20.508,-4.395,-5.371
1789912354.012166,-71.289,-19.043,1.953,-9.277
1789912354.017971,-78.125,-22.461,7.324,-0.977
1789912354.021592,-71.777,-22.461,10.742,8.301
1789912354.025213,-63.965,-17.578,11.719,11.230
1789912354.028834,-63.965,-15.625,14.648,7.324
1789912354.032456,-69.336,-12.207,18.555,16.113
1789912354.036077,-64.941,-16.113,19.043,30.762
1789912354.039698,-50.293,-18.066,18.555,32.227
1789912354.043319,-49.316,-8.301,25.391,31.250
1789912354.046940,-54.688,-7.324,32.715,24.902
1789912354.050562,-51.270,-7.812,33.691,23.926
1789912354.054183,-40.039,-5.859,35.156,32.715
1789912354.057804,-34.180,-2.930,36.621,32.715
1789912354.064769,-38.086,3.906,39.062,31.250
1789912354.068403,-37.109,4.883,40.527,34.668
1789912354.072037,-18.555,10.254,42.969,47.852
1789912354.075671,-15.137,16.602,46.875,55.664
1789912354.079305,-17.090,17.090,50.781,53.711
1789912354.082939,-11.719,19.043,53.711,56.641
1789912354.086572,-20.508,20.020,49.805,50.293
1789912354.090206,-20.020,23.438,51.270,44.922
1789912354.093840,-18.066,23.926,49.316,48.340
1789912354.097474,-29.297,19.531,40.039,36.621
1789912354.101108,-23.926,21.973,37.598,38.574
1789912354.104742,-19.531,22.949,44.922,62.500
1789912354.111912,-28.809,23.926,48.828,76.172
1789912354.115558,-26.855,30.762,50.781,73.730
1789912354.119205,-26.855,24.414,49.805,73.730
1789912354.122852,-27.832,15.625,44.434,64.941
1789912354.126498,-26.855,16.602,42.480,44.922
1789912354.130145,-24.902,15.625,38.574,53.711
1789912354.133792,-21.973,18.555,30.762,62.500
1789912354.137439,-23.926,17.578,26.855,41.992
1789912354.141085,-32.227,18.555,25.391,52.734
1789912354.144732,-27.832,18.555,26.367,70.312
1789912354.148379,-29.297,16.602,31.738,63.477
1789912354.152025,-32.715,14.160,29.297,56.152
1789912354.159678,-32.227,9.277,23.926,42.969
1789912354.163339,-40.527,0.977,20.508,42.480
1789912354.167000,-41.016,-4.883,15.625,41.016
1789912354.170660,-25.879,0.000,14.160,42.969
1789912354.174321,-39.062,2.930,7.812,46.387
1789912354.177982,-50.781,-0.977,5.371,42.480
1789912354.181642,-45.410,-2.930,4.395,12.695
1789912354.185303,-44.922,-4.395,-0.977,13.184
1789912354.188963,-43.457,-5.859,-0.488,40.527
1789912354.192624,-48.828,-11.719,-0.977,41.504
1789912354.196285,-44.922,-12.695,0.977,32.227
1789912354.199945,-46.387,-10.254,-2.441,20.508
1789912354.206070,-59.082,-14.648,-10.742,30.273
1789912354.209739,-74.707,-23.438,-17.578,32.227
1789912354.213408,-70.801,-24.902,-23.926,8.301
1789912354.217077,-53.711,-24.902,-24.414,-8.301
1789912354.220745,-57.129,-27.832,-24.902,-1.465
1789912354.224414,-57.617,-26.367,-29.297,10.742
1789912354.228083,-67.383,-23.926,-28.320,3.418
1789912354.231752,-83.496,-28.320,-28.809,0.000
1789912354.235420,-74.707,-24.902,-30.273,17.578
1789912354.239089,-68.848,-22.461,-31.250,13.184
1789912354.242758,-62.012,-26.855,-24.902,6.348
1789912354.246427,-62.988,-27.832,-23.438,15.137
1789912354.252411,-73.730,-26.855,-28.809,10.742
1789912354.256087,-78.613,-25.879,-25.879,8.301
1789912354.259763,-75.195,-20.508,-19.043,9.766
1789912354.263439,-72.266,-20.020,-16.113,15.137
1789912354.267116,-77.148,-23.438,-21.484,-1.465
1789912354.270792,-83.496,-26.855,-24.902,-28.320
1789912354.274468,-85.938,-28.320,-18.555,-25.879
1789912354.278144,-86.426,-29.297,-26.367,-11.719
1789912354.281821,-82.520,-27.832,-28.809,0.977
1789912354.285497,-77.148,-25.879,-20.996,-12.207
1789912354.289173,-82.031,-25.879,-20.020,-25.879
1789912354.292849,-84.473,-23.926,-21.484,-7.324
1789912354.298710,-86.426,-22.461,-24.902,0.000
1789912354.302393,-72.754,-20.020,-20.508,-10.742
1789912354.306076,-51.758,-20.020,-16.113,-4.395
1789912354.309759,-54.688,-21.973,-18.066,1.953
1789912354.313442,-60.547,-25.391,-17.578,0.000
1789912354.317125,-61.523,-23.926,-10.742,5.859
1789912354.320808,-77.637,-19.043,-8.301,5.859
1789912354.324491,-75.195,-16.602,-7.812,-6.836
1789912354.328174,-69.336,-17.090,-6.348,-11.230
1789912354.331857,-88.867,-22.461,-8.789,-25.879
1789912354.335540,-88.867,-25.879,-15.625,-16.113
1789912354.339223,-69.824,-20.020,-8.301,6.348
1789912354.344910,-59.570,-7.324,0.000,5.859
1789912354.348599,-57.617,0.977,7.324,22.949
1789912354.352288,-54.199,1.953,17.578,39.062
1789912354.355977,-47.363,2.930,12.207,31.738
1789912354.359666,-51.758,0.488,11.719,27.832
1789912354.363355,-46.387,0.488,19.531,19.531
1789912354.367043,-39.062,3.418,20.996,25.391
1789912354.370733,-47.363,5.859,14.160,16.113
1789912354.374421,-52.246,6.836,12.695,9.277
1789912354.378110,-60.059,4.883,15.137,12.207
1789912354.381799,-55.664,6.836,16.602,6.836
1789912354.385488,-48.340,7.324,14.160,2.930
1789912354.391022,-49.805,4.883,13.184,-14.160
1789912354.394716,-55.176,4.395,17.090,-10.742
1789912354.398411,-48.828,5.859,16.113,-8.789
1789912354.402105,-46.875,2.930,7.324,-8.301
1789912354.405799,-77.637,-2.441,4.883,6.348
1789912354.409493,-79.590,-5.859,6.836,0.000
1789912354.413188,-77.148,-12.695,7.324,-17.090
1789912354.416882,-70.312,-9.277,3.906,-10.254
1789912354.420576,-56.641,-6.348,3.418,7.324
1789912354.424270,-50.293,-4.883,7.324,17.090
1789912354.427964,-58.105,-0.488,8.301,16.113
1789912354.431659,-57.129,-5.371,8.789,11.230
1789912354.438092,-31.738,-9.766,0.000,-1.465
1789912354.441794,-53.223,-10.254,-3.906,-10.742
1789912354.445496,-80.078,-13.184,-0.977,-21.973
1789912354.449198,-80.566,-17.578,-1.953,-30.762
1789912354.452900,-71.777,-18.555,-6.836,-12.695
1789912354.456602,-70.801,-18.555,-4.395,0.000
1789912354.460304,-67.871,-15.137,-1.465,-5.371
1789912354.464005,-56.641,-16.113,-3.418,-27.344
1789912354.467707,-50.781,-17.090,-5.371,-22.949
1789912354.471409,-54.688,-18.066,-3.418,-8.789
1789912354.475111,-68.359,-17.090,-2.441,-6.836
1789912354.478813,-62.012,-9.277,0.488,0.000
1789912354.485030,-51.270,-10.742,3.418,5.859
1789912354.488739,-46.387,-17.090,-4.395,-0.488
1789912354.492448,-42.480,-20.508,-6.348,-8.789
1789912354.496156,-49.316,-16.113,-5.371,-24.902
1789912354.499865,-55.664,-8.789,-7.324,-31.250
1789912354.503574,-49.805,-10.254,-3.418,-12.207
1789912354.507282,-59.570,-17.090,-5.859,-16.113
1789912354.510991,-65.918,-16.602,-9.277,-24.902
1789912354.514699,-60.059,-10.742,-7.812,-25.879
1789912354.518408,-68.848,-14.160,-7.324,-29.785
1789912354.522117,-80.566,-16.602,-5.859,-36.621
1789912354.525825,-80.078,-23.438,-8.789,-44.434
1789912354.531862,-80.566,-28.320,-11.719,-35.156
1789912354.535577,-97.656,-24.902,-14.648,-33.691
1789912354.539292,-86.426,-24.414,-14.160,-42.480
1789912354.543006,-70.801,-24.414,-18.066,-57.617
1789912354.546721,-83.984,-23.438,-23.438,-48.340
1789912354.550436,-83.496,-20.508,-17.090,-45.410
1789912354.554151,-76.660,-19.531,-16.602,-65.918
1789912354.557865,-88.379,-22.461,-18.066,-53.711
1789912354.561580,-98.145,-20.996,-20.508,-51.758
1789912354.565295,-87.891,-17.578,-24.414,-60.547
1789912354.569009,-86.914,-20.020,-22.461,-56.152
1789912354.572724,-93.750,-22.461,-18.555,-53.711
1789912354.578589,-88.379,-18.066,-17.578,-51.758
1789912354.582309,-90.820,-19.043,-24.414,-57.617
1789912354.586029,-91.309,-15.137,-25.879,-70.312
1789912354.589749,-85.449,-13.184,-23.438,-66.406
1789912354.593469,-82.520,-14.648,-21.484,-57.129
1789912354.597189,-77.637,-14.160,-20.508,-61.523
1789912354.600909,-63.965,-11.719,-22.949,-64.453
1789912354.604630,-63.477,-4.395,-23.926,-59.082
1789912354.608350,-76.172,-4.395,-22.461,-61.035
1789912354.612070,-83.984,-11.230,-23.926,-71.289
1789912354.615790,-79.590,-16.602,-29.297,-80.078
1789912354.619510,-85.449,-13.672,-29.785,-89.355
1789912354.625208,-83.984,-5.859,-26.855,-104.492
1789912354.628933,-76.172,-6.348,-23.926,-97.656
1789912354.632658,-87.402,-13.184,-20.508,-78.125
1789912354.636383,-90.332,-17.090,-20.020,-77.148
1789912354.640108,-80.566,-15.625,-25.879,-97.656
1789912354.643832,-73.730,-18.066,-31.738,-114.258
1789912354.647557,-73.242,-11.719,-23.438,-96.680
1789912354.651283,-65.430,-2.930,-12.207,-83.008
1789912354.655007,-66.895,-2.930,-10.742,-84.961
1789912354.658732,-68.848,0.000,-11.230,-77.148
1789912354.662457,-68.359,-0.488,-9.277,-75.684
1789912354.666182,-69.336,-8.301,-13.184,-88.379
1789912354.671742,-74.219,-6.836,-13.184,-81.055
1789912354.675471,-73.730,0.977,-8.789,-83.984
1789912354.679200,-61.523,3.906,-8.301,-90.820
1789912354.682930,-46.875,5.859,-2.930,-78.125
1789912354.686659,-33.203,2.930,3.906,-64.453
1789912354.690388,-27.832,4.883,4.883,-62.988
1789912354.694118,-43.457,9.277,0.977,-74.707
1789912354.697847,-49.316,18.066,10.254,-64.453
1789912354.701576,-42.969,21.484,18.066,-61.523
1789912354.705306,-37.598,13.184,14.648,-60.059
1789912354.709035,-35.156,10.254,18.066,-62.988
1789912354.712764,-32.715,11.719,20.020,-62.500
1789912354.719121,-17.578,15.137,16.602,-68.848
1789912354.722857,-11.230,21.484,17.090,-69.824
1789912354.726592,-14.648,24.902,23.926,-63.965
1789912354.730327,-17.090,29.297,24.902,-61.035
1789912354.734063,-14.160,35.645,20.996,-39.062
1789912354.737798,-18.066,31.250,26.367,-58.105
1789912354.741534,-18.555,28.320,25.391,-64.941
1789912354.745269,-15.625,29.297,20.996,-56.152
1789912354.749004,-19.531,24.902,20.996,-60.059
1789912354.752740,-17.090,23.926,15.137,-46.387
1789912354.756475,-24.414,23.926,7.812,-44.922
1789912354.760211,-30.273,21.484,14.648,-39.551
1789912354.766353,-15.625,20.996,16.113,-33.691
1789912354.770094,-18.555,18.066,10.742,-52.246
1789912354.773835,-37.109,15.137,6.348,-63.965
1789912354.777576,-37.109,13.184,-3.418,-59.570
1789912354.781317,-34.668,12.207,-9.277,-53.711
1789912354.785058,-35.645,11.230,-8.301,-98.145
1789912354.788798,-29.785,14.648,-3.906,-123.047
1789912354.792539,-33.691,14.160,-8.301,-83.984
1789912354.796280,-40.527,11.230,-12.695,-92.773
1789912354.800021,-34.668,4.883,-13.672,-86.914
1789912354.803762,-22.949,-1.465,-19.043,-83.984
1789912354.807503,-35.645,-0.488,-23.438,-95.703
1789912354.813504,-41.016,-0.977,-22.461,-98.145
1789912354.817250,-37.109,1.465,-26.367,-97.168
1789912354.820995,-35.645,0.488,-30.273,-102.539
1789912354.824741,-37.109,0.488,-30.762,-99.121
1789912354.828487,-60.547,-0.977,-32.715,-98.633
1789912354.832233,-67.383,-6.348,-36.133,-111.328
1789912354.835979,-61.035,-7.812,-37.598,-105.957
1789912354.839724,-54.688,-12.207,-40.527,-108.398
1789912354.843470,-44.434,-11.230,-38.086,-126.465
1789912354.847216,-52.734,-8.301,-38.086,-126.465
1789912354.850962,-62.012,-9.277,-45.898,-118.652
1789912354.854707,-64.941,-18.555,-47.852,-120.605
1789912354.860558,-68.359,-23.926,-42.969,-117.188
1789912354.864308,-59.570,-15.137,-41.016,-113.281
1789912354.868058,-62.012,-7.324,-46.875,-116.211
1789912354.871808,-57.129,-7.812,-52.246,-104.492
1789912354.875559,-51.758,-12.695,-58.594,-89.844
1789912354.879309,-70.801,-8.789,-55.664,-85.938
1789912354.883059,-61.035,-6.836,-55.664,-93.750
1789912354.886810,-45.410,-7.812,-55.664,-107.910
1789912354.890560,-51.758,-13.672,-52.246,-101.074
1789912354.894310,-59.570,-13.672,-52.734,-94.238
1789912354.898060,-59.570,-12.695,-52.246,-125.977
1789912354.901811,-63.965,-20.508,-58.105,-139.648
1789912354.907457,-66.895,-24.414,-58.594,-121.094
1789912354.911211,-67.871,-27.832,-55.664,-112.793
1789912354.914965,-69.336,-20.508,-55.664,-116.211
1789912354.918720,-68.848,-14.648,-53.711,-121.582
1789912354.922474,-71.289,-24.902,-58.105,-137.695
1789912354.926228,-67.871,-23.438,-56.641,-143.555
1789912354.929982,-66.895,-20.508,-54.199,-131.348
1789912354.933737,-71.289,-26.855,-52.734,-131.836
1789912354.937491,-66.406,-24.902,-46.875,-109.863
1789912354.941245,-65.430,-23.438,-45.898,-95.703
1789912354.944999,-82.520,-25.391,-44.922,-120.605
1789912354.948753,-80.566,-27.344,-50.781,-144.531
1789912354.954319,-72.754,-22.949,-55.176,-144.043
1789912354.958077,-75.684,-22.949,-58.105,-153.809
1789912354.961835,-79.102,-26.855,-61.035,-151.855
1789912354.965593,-70.801,-22.461,-54.688,-131.836
1789912354.969351,-53.223,-17.090,-50.293,-128.418
1789912354.973108,-61.523,-23.438,-51.270,-139.160
1789912354.976866,-69.336,-28.809,-56.152,-143.555
1789912354.980624,-68.848,-29.297,-57.617,-134.277
1789912354.984382,-77.148,-25.879,-55.176,-124.512
1789912354.988140,-76.660,-20.508,-51.270,-131.836
1789912354.991898,-79.590,-20.996,-49.316,-135.254
1789912354.995656,-84.961,-26.367,-55.664,-139.648
1789912355.001024,-73.730,-31.738,-55.664,-146.484
1789912355.004786,-65.918,-29.785,-49.805,-145.996
1789912355.008547,-56.152,-25.879,-50.293,-146.973
1789912355.012308,-61.523,-25.879,-51.270,-141.602
1789912355.016069,-78.613,-29.297,-53.223,-140.625
1789912355.019830,-71.289,-27.832,-57.129,-141.113
1789912355.023591,-73.730,-29.297,-59.570,-135.742
1789912355.027352,-67.871,-37.109,-61.523,-151.367
1789912355.031113,-65.430,-33.691,-62.988,-155.762
1789912355.034874,-79.590,-31.738,-61.523,-141.602
1789912355.038636,-74.707,-34.180,-59.082,-133.789
1789912355.042397,-77.637,-37.598,-62.500,-141.602
1789912355.047647,-90.332,-38.086,-63.477,-145.020
1789912355.051411,-84.473,-35.156,-59.082,-145.020
1789912355.055175,-70.801,-36.133,-57.617,-155.273
1789912355.058939,-68.848,-37.109,-60.059,-155.273
1789912355.062703,-82.031,-32.715,-56.641,-148.438
1789912355.066467,-77.148,-33.691,-55.664,-140.625
1789912355.070231,-69.824,-34.180,-58.594,-139.160
1789912355.073995,-68.848,-32.715,-62.012,-163.574
1789912355.077759,-69.336,-29.785,-65.918,-173.828
1789912355.081523,-79.590,-29.297,-60.059,-153.320
1789912355.085287,-80.078,-31.250,-51.758,-150.879
1789912355.089051,-64.941,-38.086,-52.734,-161.133
1789912355.094991,-70.801,-42.480,-58.105,-164.062
1789912355.098759,-71.777,-31.738,-56.152,-145.996
1789912355.102527,-66.406,-28.809,-49.805,-136.230
1789912355.106295,-67.383,-30.762,-47.852,-145.996
1789912355.110064,-69.824,-31.250,-52.246,-143.555
1789912355.113832,-56.152,-28.809,-53.223,-138.672
1789912355.117600,-46.387,-25.391,-46.875,-125.000
1789912355.121368,-48.340,-24.902,-49.316,-117.676
1789912355.125136,-48.828,-26.367,-46.875,-130.859
1789912355.128904,-56.152,-27.344,-40.039,-132.324
1789912355.132672,-68.359,-26.855,-40.527,-121.582
1789912355.136440,-73.730,-27.344,-38.086,-112.305
1789912355.141437,-57.129,-22.461,-34.668,-111.328
1789912355.145207,-67.871,-18.066,-35.645,-124.023
1789912355.148978,-79.590,-18.555,-40.039,-128.906
1789912355.152748,-58.105,-16.113,-35.645,-122.070
1789912355.156518,-47.363,-14.648,-31.250,-116.699
1789912355.160289,-64.941,-17.578,-40.527,-123.047
1789912355.164059,-68.359,-18.555,-44.922,-132.324
1789912355.167830,-62.012,-19.531,-41.016,-129.883
1789912355.171600,-66.406,-21.973,-39.551,-123.047
1789912355.175370,-65.918,-20.996,-41.504,-105.957
1789912355.179141,-63.965,-21.484,-43.945,-112.793
1789912355.182911,-62.500,-25.391,-45.410,-133.301
1789912355.188563,-58.594,-23.926,-42.480,-143.555
1789912355.192337,-60.059,-19.043,-38.574,-153.809
1789912355.196111,-60.059,-18.066,-41.992,-145.508
1789912355.199885,-62.500,-19.043,-44.434,-130.371
1789912355.203659,-55.664,-16.602,-34.668,-118.652
1789912355.207433,-47.363,-12.207,-29.297,-111.816
1789912355.211206,-70.801,-10.254,-26.367,-129.883
1789912355.214980,-79.102,-11.230,-24.414,-133.789
1789912355.218754,-58.594,-12.207,-27.832,-117.676
1789912355.222528,-59.570,-14.160,-30.762,-120.605
1789912355.226301,-82.520,-26.855,-33.691,-127.441
1789912355.230075,-82.031,-34.180,-31.250,-124.023
1789912355.235636,-63.477,-28.320,-29.297,-121.582
1789912355.239413,-62.500,-25.391,-29.785,-118.164
1789912355.243190,-78.613,-29.297,-21.484,-124.023
1789912355.246966,-80.566,-30.273,-24.902,-136.719
1789912355.250743,-57.129,-27.832,-29.297,-113.770
1789912355.254520,-30.273,-28.809,-21.484,-102.051
1789912355.258297,-25.879,-28.809,-25.879,-99.609
1789912355.262074,-23.438,-28.809,-28.809,-99.121
1789912355.265851,-19.531,-30.273,-32.227,-104.004
1789912355.269628,-16.113,-24.414,-32.227,-97.168
1789912355.273405,-3.906,-18.066,-25.879,-102.051
1789912355.277182,-13.672,-20.508,-25.879,-114.746
1789912355.282692,-23.438,-19.531,-23.926,-111.328
1789912355.286472,-12.207,-16.602,-18.066,-107.422
1789912355.290252,-10.254,-20.996,-16.113,-110.840
1789912355.294032,-10.254,-20.020,-19.043,-103.027
1789912355.297812,-8.301,-16.602,-20.020,-101.074
1789912355.301592,-19.043,-17.578,-14.160,-96.191
1789912355.305372,-16.602,-12.207,-12.695,-102.051
1789912355.309152,-5.371,-3.418,-7.812,-108.398
1789912355.312932,-2.441,1.465,1.465,-81.055
1789912355.316712,-2.441,4.883,3.418,-70.312
1789912355.320492,6.348,11.719,8.301,-67.383
1789912355.324271,6.836,8.301,8.789,-50.781
1789912355.329571,0.000,6.348,9.277,-60.059
1789912355.333353,16.113,11.719,11.719,-75.684
1789912355.337136,17.578,15.625,16.602,-62.012
1789912355.340918,6.348,15.625,21.484,-47.852
1789912355.344701,13.184,21.484,23.926,-41.504
1789912355.348483,21.484,26.855,24.414,-30.762
1789912355.352266,22.949,22.461,20.020,-33.691
1789912355.356048,41.504,21.973,17.090,-34.180
1789912355.359831,41.504,22.461,16.602,-23.438
1789912355.363614,11.230,20.508,17.578,-43.457
1789912355.367396,8.789,15.625,20.020,-50.293
1789912355.371179,32.715,20.020,19.531,-27.832
1789912355.376346,21.973,31.250,16.602,-48.828
1789912355.380131,-2.930,37.109,12.695,-68.848
1789912355.383916,0.000,34.668,11.719,-48.828
1789912355.387701,6.348,30.762,10.254,-44.434
1789912355.391485,-2.441,37.109,1.465,-60.547
1789912355.395270,-11.719,37.598,-9.277,-58.594
1789912355.399055,-25.391,26.855,-15.625,-61.523
1789912355.402840,-28.320,19.043,-14.160,-63.965
1789912355.406625,-24.902,21.973,-14.160,-62.988
1789912355.410410,-34.668,20.020,-14.648,-67.383
1789912355.414195,-25.391,23.926,-11.230,-52.246
1789912355.417980,-22.461,25.391,-13.672,-53.223
1789912355.423036,-10.742,22.461,-18.066,-57.129
1789912355.426823,5.371,19.531,-11.719,-52.734
1789912355.430610,-8.301,14.648,-12.207,-48.828
1789912355.434397,-15.137,15.137,-16.113,-27.344
1789912355.438184,-2.930,19.531,-14.160,-21.973
1789912355.441971,1.953,19.531,-11.230,-41.992
1789912355.445758,-13.672,11.719,-13.184,-39.551
1789912355.449544,-22.461,10.742,-10.742,-22.949
1789912355.453331,-17.090,7.324,-5.371,-22.949
1789912355.457118,-27.832,-1.465,-4.395,-24.902
1789912355.460905,-32.227,-0.977,-5.371,-22.949
1789912355.464692,-23.438,3.418,-15.137,-42.480
1789912355.469661,-26.855,3.418,-18.066,-43.945
1789912355.473450,-27.344,-4.395,-19.043,-22.949
1789912355.477239,-33.203,-6.836,-22.461,-27.832
1789912355.481028,-39.062,2.441,-14.160,-28.320
1789912355.484817,-20.996,4.395,-10.254,-25.879
1789912355.488605,-15.625,1.953,-12.207,-24.902
1789912355.492394,-17.090,1.465,-9.277,-22.461
1789912355.496183,-21.484,-0.488,-0.488,-37.109
1789912355.499972,-16.602,5.371,0.488,-36.133
1789912355.503761,-14.160,11.230,-6.836,-15.137
1789912355.507550,-35.156,7.324,-5.371,-18.555
1789912355.511339,-53.711,5.371,-2.930,-23.926
1789912355.516228,-54.199,4.395,-4.883,-40.527
1789912355.520019,-46.387,2.930,-9.766,-45.898
1789912355.523809,-43.457,3.418,-10.742,-37.109
1789912355.527600,-56.641,4.883,-15.625,-43.457
1789912355.531391,-57.129,-1.465,-20.996,-59.082
1789912355.535181,-29.297,-6.836,-19.531,-63.965
1789912355.538972,-26.855,-4.883,-12.695,-63.965
1789912355.542762,-41.016,-5.859,-7.812,-44.434
1789912355.546553,-52.246,-2.441,-11.230,-42.480
1789912355.550344,-51.270,2.441,-11.719,-84.961
1789912355.554134,-46.387,1.953,-8.789,-99.609
1789912355.557925,-48.340,2.930,-10.254,-98.145
1789912355.563401,-46.875,1.465,-14.648,-104.004
1789912355.567194,-40.527,-3.906,-13.184,-96.680
1789912355.570987,-39.062,0.488,-11.719,-82.520
1789912355.574781,-38.574,5.859,-8.789,-74.219
1789912355.578574,-44.434,4.395,-8.789,-74.219
1789912355.582367,-48.828,3.906,-7.324,-70.801
1789912355.586160,-41.992,4.883,-2.930,-61.523
1789912355.589953,-29.297,1.953,-3.906,-64.453
1789912355.593746,-30.273,-1.465,-14.160,-67.383
1789912355.597540,-47.363,-0.488,-12.207,-78.125
1789912355.601333,-45.410,-2.441,-8.301,-81.055
1789912355.605126,-26.367,-0.977,-7.324,-71.289
1789912355.610448,-33.203,3.418,-7.812,-81.055
1789912355.614244,-47.363,2.930,-9.766,-82.520
1789912355.618039,-29.297,3.418,-4.395,-71.289
1789912355.621835,-19.043,1.953,-0.977,-63.965
1789912355.625630,-28.320,-0.488,-4.883,-51.758
1789912355.629426,-38.086,0.977,-5.859,-47.363
1789912355.633221,-53.223,0.977,-5.371,-45.898
1789912355.637017,-39.062,-0.977,0.488,-42.480
1789912355.640812,-32.227,-1.953,3.906,-55.176
1789912355.644608,-56.641,-0.977,-2.930,-59.082
1789912355.648403,-51.270,-0.977,-0.488,-54.688
1789912355.652199,-44.434,3.418,0.000,-50.293
1789912355.657487,-42.969,1.465,-7.812,-48.828
1789912355.661285,-42.969,-0.977,-10.254,-54.199
1789912355.665083,-55.664,5.371,-10.742,-56.152
1789912355.668880,-56.152,8.789,-6.836,-46.875
1789912355.672678,-43.945,6.348,-2.441,-28.320
1789912355.676476,-37.598,9.766,-1.465,-21.484
1789912355.680274,-48.340,4.883,-1.953,-24.902
1789912355.684071,-60.059,4.883,-1.953,-37.109
1789912355.687869,-48.828,-0.488,-4.395,-44.434
1789912355.691667,-47.363,-4.395,-10.254,-50.293
1789912355.695464,-65.918,4.883,-7.812,-37.598
1789912355.699262,-55.176,6.836,-7.324,-22.949
1789912355.704415,-44.922,2.441,-14.160,-45.898
1789912355.708214,-51.270,0.977,-13.184,-43.457
1789912355.712014,-50.781,0.977,-3.906,-38.574
1789912355.715814,-42.969,3.906,-2.930,-59.570
1789912355.719614,-50.293,5.371,-8.789,-56.641
1789912355.723413,-53.711,-1.465,-9.766,-40.527
1789912355.727213,-51.758,-2.441,-3.418,-25.879
1789912355.731013,-58.105,-1.953,-3.418,-12.207
1789912355.734812,-30.762,-8.301,-5.371,-3.906
1789912355.738612,-14.648,-11.719,-0.488,-18.555
1789912355.742412,-26.855,-9.766,-2.441,-37.598
1789912355.746211,-33.691,-6.348,-1.465,-47.363
1789912355.751852,-35.156,0.977,-2.441,-58.105
1789912355.755654,-29.297,0.000,-11.719,-44.922
1789912355.759456,-24.902,-6.348,-8.301,-28.320
1789912355.763259,-34.180,-3.418,-5.371,-27.344
1789912355.767061,-35.645,-1.953,-6.836,-17.578
1789912355.770863,-19.531,-4.395,-4.883,-9.766
1789912355.774666,-20.020,-6.348,-1.465,-3.906
1789912355.778468,-23.926,-7.812,-1.465,-12.207
1789912355.782270,-22.949,-6.348,-4.395,-21.973
1789912355.786072,-32.227,-3.906,-6.836,-28.809
1789912355.789875,-31.250,-6.348,-5.859,-16.602
1789912355.793677,-20.996,-3.906,-2.441,-1.465
1789912355.798576,-22.949,-0.977,-2.930,-20.996
1789912355.802380,-28.809,-1.465,-4.395,-28.809
1789912355.806183,-22.461,-7.812,-1.953,-22.949
1789912355.809987,-15.625,-7.324,-3.418,-11.230
1789912355.813791,-19.043,-1.953,-3.906,-13.672
1789912355.817595,-18.066,-5.859,-5.859,-23.438
1789912355.821399,-15.137,-5.859,-8.789,-13.672
1789912355.825203,-13.184,0.977,-7.812,-7.324
1789912355.829007,-16.602,0.000,-1.953,-18.066
1789912355.832811,-27.832,-6.348,-3.906,-28.320
1789912355.836614,-22.949,-5.859,-3.418,-21.973
1789912355.840418,-10.254,-0.977,-0.488,-18.555
1789912355.845269,-24.902,0.488,-5.371,-23.926
1789912355.849075,-31.738,0.977,-0.977,-16.113
1789912355.852880,-22.461,2.930,2.930,-6.836
1789912355.856685,-9.277,1.465,-1.953,-10.254
1789912355.860491,-13.672,-2.930,-6.836,-10.254
1789912355.864296,-39.551,-9.766,-8.301,-14.160
1789912355.868102,-44.434,-9.766,-6.348,2.930
1789912355.871907,-41.016,-8.301,-4.395,-1.953
1789912355.875712,-40.527,-11.230,-4.395,-20.020
1789912355.879518,-43.945,-10.254,-2.441,-8.789
1789912355.883323,-35.156,-8.301,-0.488,-0.488
1789912355.887128,-18.066,-5.371,-4.883,-18.555
1789912355.891907,-26.367,-0.977,-5.859,-21.484
1789912355.895713,-41.992,-4.883,-2.441,-20.020
1789912355.899520,-44.922,-10.742,-9.277,-22.949
1789912355.903327,-48.828,-11.230,-12.695,-19.043
1789912355.907133,-45.410,-7.812,-6.836,-23.926
1789912355.910940,-32.715,-5.371,4.883,-8.301
1789912355.914747,-18.555,0.488,15.625,3.906
1789912355.918553,-6.348,9.766,23.438,14.160
1789912355.922360,-4.883,11.719,26.855,20.508
1789912355.926167,-11.719,12.207,24.414,9.277
1789912355.929973,-20.020,15.137,20.508,0.000
1789912355.933780,-14.648,21.484,22.949,16.113
1789912355.939033,-2.930,20.996,30.762,18.555
1789912355.942842,6.348,22.949,34.668,14.160
1789912355.946651,20.508,25.391,33.203,20.996
1789912355.950459,20.020,20.996,40.527,20.508
1789912355.954268,11.230,29.297,42.480,37.598
1789912355.958076,19.043,33.203,37.598,48.340
1789912355.961885,19.043,28.809,45.410,45.898
1789912355.965694,5.371,32.715,53.223,43.945
1789912355.969502,22.949,39.551,55.176,35.156
1789912355.973311,41.504,39.551,53.223,33.691
1789912355.977119,13.184,35.156,50.293,45.410
1789912355.980928,4.395,30.273,48.340,51.758
1789912355.986131,3.418,29.297,50.781,55.176
1789912355.989941,-2.441,29.785,52.734,62.012
1789912355.993752,15.137,30.273,48.828,55.664
1789912355.997562,16.113,28.809,43.945,49.316
1789912356.001373,23.926,30.273,41.016,52.734
1789912356.005183,24.414,35.645,41.016,62.988
1789912356.008993,13.672,36.621,40.039,62.988
1789912356.012804,8.789,34.668,40.039,55.176
1789912356.016614,3.418,33.691,38.574,57.617
1789912356.020425,7.812,27.344,37.109,61.035
1789912356.024235,9.766,21.973,36.133,52.734
1789912356.028046,10.742,24.414,34.180,36.133
1789912356.033124,7.324,24.414,35.156,39.062
1789912356.036937,6.348,21.484,36.133,53.223
1789912356.040749,11.230,18.555,32.227,39.551
1789912356.044561,5.859,16.602,26.855,29.785
1789912356.048373,3.906,16.113,25.391,24.902
1789912356.052185,4.883,16.113,30.273,41.992
1789912356.055997,4.883,19.043,31.738,62.012
1789912356.059809,1.465,26.855,22.949,61.035
1789912356.063621,-2.930,28.320,18.066,68.848
1789912356.067433,3.906,20.508,16.602,65.918
1789912356.071245,-3.418,18.066,13.184,38.574
1789912356.075058,-2.930,17.578,11.230,35.156
1789912356.080049,-7.812,14.648,10.742,45.410
1789912356.083862,-21.484,13.184,9.277,44.434
1789912356.087676,-14.160,14.160,13.672,29.785
1789912356.091489,-3.906,9.277,12.207,25.391
1789912356.095303,-13.672,1.953,8.301,32.227
1789912356.099117,-20.508,2.930,6.348,36.133
1789912356.102930,-21.484,2.441,10.254,26.367
1789912356.106744,-12.695,2.441,4.395,22.461
1789912356.110558,-17.578,-2.441,-3.906,44.922
1789912356.114371,-20.996,-4.883,1.465,38.086
1789912356.118185,-14.160,0.977,2.441,17.578
1789912356.121998,-36.133,2.930,0.000,8.789
1789912356.126882,-43.945,-3.418,-0.977,10.742
1789912356.130697,-34.668,-4.883,2.441,26.855
1789912356.134511,-31.738,-4.883,-1.953,34.668
1789912356.138327,-21.484,-2.441,-0.488,32.227
1789912356.142142,-33.691,-4.883,5.371,26.855
1789912356.145957,-51.270,-12.695,-0.488,22.949
1789912356.149771,-42.969,-14.648,-1.953,18.066
1789912356.153586,-44.434,-14.160,2.441,10.742
1789912356.157401,-50.781,-11.230,2.930,21.973
1789912356.161216,-48.828,-6.836,0.488,37.109
1789912356.165031,-45.898,-8.301,2.930,43.457
1789912356.168846,-40.039,-9.277,0.488,36.621
1789912356.173655,-39.062,-9.277,-2.930,22.461
1789912356.177471,-42.480,-11.719,3.418,28.809
1789912356.181287,-35.645,-8.301,7.324,37.109
1789912356.185103,-39.551,-3.906,5.371,20.996
1789912356.188920,-47.852,-16.602,1.953,31.250
1789912356.192736,-20.508,-12.207,8.301,43.457
1789912356.196552,-24.414,-1.953,6.836,14.648
1789912356.200368,-71.777,-12.695,-10.254,-1.953
1789912356.204184,-65.918,-16.602,-17.578,4.883
1789912356.208000,-44.922,-18.066,-15.137,-11.230
1789912356.211817,-51.758,-15.137,-18.555,-19.043
1789912356.215633,-42.480,-9.766,-20.508,-5.371
1789912356.220978,-35.645,-19.043,-26.367,-4.395
1789912356.224796,-35.156,-23.926,-26.855,11.230
1789912356.228614,-37.109,-19.531,-25.879,17.578
1789912356.232432,-45.410,-22.461,-23.438,18.066
1789912356.236250,-39.062,-17.578,-16.602,27.344
1789912356.240068,-26.367,-8.301,-16.602,38.086
1789912356.243886,-19.531,-3.906,-13.672,36.133
1789912356.247705,-27.832,-7.324,-13.184,32.227
1789912356.251523,-25.879,-12.695,-14.648,38.086
1789912356.255341,-19.043,-11.230,-15.625,47.852
1789912356.259159,-20.508,-11.230,-14.648,36.621
1789912356.262977,-32.227,-9.277,-10.742,14.160
1789912356.268132,-31.738,-5.859,-10.742,-2.441
1789912356.271952,-19.531,-5.371,-9.277,11.719
1789912356.275771,-34.180,-8.789,-8.301,40.039
1789912356.279591,-35.645,-14.160,-3.906,35.645
1789912356.283411,-19.531,-16.602,-2.930,6.836
1789912356.287230,-24.902,-14.160,-5.371,17.578
1789912356.291050,-28.809,-11.230,-1.465,49.316
1789912356.294870,-33.203,-7.812,1.465,43.457
1789912356.298689,-30.273,-5.371,-1.953,29.297
1789912356.302509,-14.648,-6.836,-11.230,32.227
1789912356.306329,-23.926,-3.418,-1.953,44.434
1789912356.310148,-16.113,-1.953,4.395,35.645
1789912356.314762,-6.348,-5.371,-4.395,13.672
1789912356.318582,-28.809,-11.230,-7.812,13.672
1789912356.322403,-40.039,-18.066,-10.742,9.277
1789912356.326224,-40.039,-21.484,-14.648,0.000
1789912356.330044,-36.133,-23.438,-7.324,18.555
1789912356.333865,-33.203,-21.973,-0.488,39.062
1789912356.337686,-40.527,-18.555,1.953,47.852
1789912356.341506,-49.805,-23.438,-3.906,42.969
1789912356.345327,-46.387,-21.973,-8.789,36.621
1789912356.349147,-37.598,-18.555,-9.277,30.762
1789912356.352968,-29.297,-17.090,-8.301,14.648
1789912356.356789,-36.133,-12.207,-7.812,24.414
1789912356.361806,0.000,-12.207,-7.324,35.645
1789912356.365628,0.000,-17.578,-9.766,5.859
1789912356.369451,0.000,-28.320,-18.066,-4.883
1789912356.373273,0.000,-27.832,-13.184,19.043
1789912356.377095,0.000,-22.949,-12.207,27.344
1789912356.380917,0.000,-20.508,-20.020,20.020
1789912356.384739,0.000,-19.531,-21.484,9.277
1789912356.388561,0.000,-18.555,-13.184,7.324
1789912356.392383,0.000,-18.555,-14.648,9.766
1789912356.396205,0.000,-25.391,-22.461,7.812
1789912356.400027,0.000,-22.461,-18.066,13.184
1789912356.403849,0.000,-17.090,-16.113,35.645
1789912356.408776,-25.391,-16.113,-17.578,21.973
1789912356.412599,-24.902,-21.484,-20.996,0.977
1789912356.416422,-55.664,-36.133,-27.344,6.348
1789912356.420246,-69.824,-41.016,-35.156,9.766
1789912356.424069,-62.012,-42.480,-34.180,15.137
1789912356.427892,-61.523,-41.504,-33.203,1.953
1789912356.431715,-76.172,-36.621,-35.156,-15.137
1789912356.435539,-80.566,-37.598,-37.109,-20.508
1789912356.439362,-65.918,-38.574,-39.062,-26.367
1789912356.443186,-72.754,-35.156,-41.992,-26.367
1789912356.447009,-65.430,-33.691,-47.852,-7.812
1789912356.450832,-49.316,-39.062,-43.945,5.371
1789912356.455688,-77.637,-45.410,-36.621,-20.996
1789912356.459512,-105.957,-42.969,-37.109,-41.504
1789912356.463337,-102.539,-38.574,-33.691,-40.039
1789912356.467161,-102.051,-32.227,-32.715,-41.504
1789912356.470986,-125.488,-37.598,-32.715,-41.992
1789912356.474810,-133.301,-42.480,-26.855,-45.898
1789912356.478635,-129.395,-38.086,-20.508,-53.223
1789912356.482459,-142.578,-38.574,-17.578,-52.734
1789912356.486284,-162.598,-41.016,-20.020,-59.570
1789912356.490108,-146.484,-39.551,-24.414,-65.430
1789912356.493933,-133.789,-33.203,-16.602,-60.547
1789912356.497757,-151.855,-36.133,-15.625,-68.848
1789912356.502520,-165.039,-36.133,-20.996,-73.730
1789912356.506345,-160.156,-32.715,-16.113,-71.289
1789912356.510171,-141.602,-27.344,-16.113,-63.965
1789912356.513996,-157.715,-28.809,-17.090,-69.336
1789912356.517822,-163.086,-35.645,-19.043,-78.613
1789912356.521647,-146.973,-37.598,-26.367,-90.820
1789912356.525473,-137.695,-34.668,-23.926,-85.449
1789912356.529299,-138.672,-35.645,-19.043,-65.430
1789912356.533124,-143.555,-37.109,-17.578,-56.641
1789912356.536950,-118.164,-28.320,-9.277,-38.574
1789912356.540775,-93.262,-22.949,-8.301,-14.160
1789912356.544601,-98.633,-29.297,-16.113,-6.836
1789912356.549335,-89.844,-31.250,-15.625,-8.301
1789912356.553161,-70.312,-25.391,-13.184,-11.719
1789912356.556988,-76.172,-23.926,-11.719,-3.906
1789912356.560814,-82.031,-26.855,-10.254,1.465
1789912356.564641,-70.312,-24.414,-11.230,8.301
1789912356.568467,-58.105,-19.043,-8.789,1.465
1789912356.572294,-59.082,-16.113,-4.883,-2.441
1789912356.576120,-30.762,-13.184,0.977,17.578
1789912356.579947,-36.621,-13.184,0.977,7.324
1789912356.583774,-57.129,-9.277,0.977,12.695
1789912356.587600,-38.086,-7.812,2.930,29.297
1789912356.591427,-27.832,-7.324,7.324,26.367
1789912356.596037,-22.949,0.000,10.742,32.227
1789912356.599865,-23.926,2.930,9.277,44.434
1789912356.603692,-15.625,9.277,14.160,54.199
1789912356.607520,-3.906,9.766,22.461,55.176
1789912356.611347,3.418,15.625,26.855,54.199
1789912356.615175,12.207,18.555,28.320,62.012
1789912356.619002,10.742,10.742,24.902,58.105
1789912356.622829,4.395,14.648,27.832,49.805
1789912356.626657,0.000,19.043,34.180,64.453
1789912356.630484,19.531,23.438,34.180,66.406
1789912356.634312,21.484,26.367,36.133,67.383
1789912356.638139,16.113,26.367,36.133,87.891
1789912356.642687,27.344,27.832,35.156,88.867
1789912356.646515,35.645,35.645,41.504,92.285
1789912356.650343,37.598,36.621,41.504,96.191
1789912356.654171,34.668,33.203,34.180,88.867
1789912356.658000,36.621,29.785,37.598,88.379
1789912356.661828,40.527,27.832,42.480,97.656
1789912356.665656,31.250,28.320,39.551,92.285
1789912356.669484,26.367,29.297,36.621,81.543
1789912356.673312,28.809,28.809,36.133,82.520
1789912356.677141,19.531,25.391,34.180,82.031
1789912356.680969,5.859,21.973,29.785,84.473
1789912356.684797,12.695,24.902,30.273,90.820
1789912356.689778,6.348,26.367,29.785,92.773
1789912356.693607,-1.465,23.926,23.926,82.031
1789912356.697437,1.465,25.879,18.066,66.406
1789912356.701266,0.488,26.855,22.949,54.199
1789912356.705096,8.301,25.879,26.367,54.199
1789912356.708925,1.465,20.508,16.113,50.781
1789912356.712754,-5.859,12.207,12.207,40.527
1789912356.716584,-3.418,8.301,13.672,39.062
1789912356.720413,-3.906,5.859,8.301,26.855
1789912356.724243,-10.254,1.465,2.930,21.484
1789912356.728072,-13.672,-0.488,-2.441,22.461
1789912356.731902,-16.113,-1.465,-5.859,12.695
1789912356.736875,-9.766,1.465,-2.930,16.602
1789912356.740705,-13.184,2.930,-3.418,21.973
1789912356.744536,-33.203,4.883,0.488,17.090
1789912356.748367,-22.461,12.695,5.371,19.043
1789912356.752197,-10.742,11.230,4.883,12.695
1789912356.756028,-32.715,0.977,1.953,2.441
1789912356.759859,-40.039,-2.441,-4.395,11.230
1789912356.763689,-27.832,5.371,2.441,18.066
1789912356.767520,-14.648,7.812,13.184,32.227
1789912356.771350,-14.160,5.371,12.207,31.738
1789912356.775181,-19.531,0.977,2.441,23.926
1789912356.779012,-20.508,-6.836,-1.465,22.461
1789912356.783817,-22.949,-8.301,-0.977,11.719
1789912356.787649,-32.715,-4.395,1.465,12.207
1789912356.791481,-37.598,-3.418,-0.488,-2.930
1789912356.795312,-38.086,-3.418,1.465,-20.996
1789912356.799144,-38.574,-5.371,-1.465,-9.766
1789912356.802976,-47.852,-6.836,-5.371,6.348
1789912356.806807,-60.547,-10.254,-3.418,1.465
1789912356.810639,-57.129,-6.836,-9.766,-6.348
1789912356.814471,-39.062,-1.953,-4.395,6.836
1789912356.818302,-34.668,-2.930,3.418,6.348
1789912356.822134,-41.504,-2.441,2.441,-4.395
1789912356.825965,-41.016,-2.930,2.930,-0.977
1789912356.830729,-36.621,-7.324,0.977,-18.555
1789912356.834562,-26.855,-10.742,-6.348,-28.320
1789912356.838394,-29.785,-7.812,-3.906,-16.602
1789912356.842227,-41.016,-10.742,-0.977,-19.043
1789912356.846059,-42.969,-12.207,-5.859,-19.043
1789912356.849892,-40.039,-8.301,-6.348,-15.625
1789912356.853724,-44.922,-7.324,-6.836,-11.230
1789912356.857557,-48.340,-8.301,0.488,-2.441
1789912356.861390,-36.621,-5.371,5.859,9.277
1789912356.865222,-41.016,-2.441,3.418,3.906
1789912356.869055,-45.898,-3.418,5.859,3.906
1789912356.872888,-33.691,-0.488,5.859,9.277
1789912356.877549,-32.227,-2.441,4.395,10.254
1789912356.881382,-42.480,-9.277,0.488,-9.766
1789912356.885216,-49.316,-6.836,0.000,-37.109
1789912356.889049,-60.059,-20.996,-11.230,-42.480
1789912356.892883,-87.402,-47.852,-41.992,-55.176
1789912356.896716,-95.215,-46.875,-41.504,-52.246
1789912356.900550,-84.961,-33.691,-26.855,-32.227
1789912356.904383,-73.242,-30.273,-22.461,-27.832
1789912356.908216,-61.523,-24.902,-22.461,-33.691
1789912356.912050,-56.641,-18.555,-22.461,-37.109
1789912356.915883,-59.570,-14.648,-13.184,-21.973
1789912356.919717,-41.504,-1.465,6.348,0.977
1789912356.924470,0.000,6.348,13.184,3.418
1789912356.928305,0.000,1.465,9.277,5.859
1789912356.932139,0.000,3.906,16.113,10.254
1789912356.935973,0.000,12.207,20.996,17.578
1789912356.939808,0.000,9.277,13.184,18.555
1789912356.943642,0.000,3.906,8.301,1.465
1789912356.947477,0.000,4.883,10.254,17.090
1789912356.951311,0.000,5.371,11.719,25.391
1789912356.955145,0.000,2.441,9.766,16.113
1789912356.958980,0.000,-0.488,8.789,15.625
1789912356.962814,0.000,-1.465,11.719,8.301
1789912356.966649,0.000,-6.836,2.441,-9.766
1789912356.971179,-25.391,-6.348,-3.906,-12.207
1789912356.975014,-41.992,3.418,5.371,-5.859
1789912356.978849,-41.016,5.859,5.859,-19.531
1789912356.982684,-36.621,2.441,2.930,-17.090
1789912356.986519,-43.945,3.906,0.488,-18.066
1789912356.990354,-46.387,-0.488,-3.906,-24.902
1789912356.994189,-54.688,-6.836,0.977,-11.719
1789912356.998024,-64.941,-6.348,4.395,-16.602
1789912357.001859,-61.523,-4.883,0.000,-23.926
1789912357.005694,-51.758,-3.906,1.953,-9.277
1789912357.009529,-51.758,-5.371,6.348,-1.465
1789912357.013364,-52.246,-6.348,4.883,-8.301
1789912357.017838,-44.922,-3.418,8.301,-6.348
1789912357.021673,-38.574,0.000,7.324,-6.348
1789912357.025509,-35.645,0.488,7.324,-8.789
1789912357.029345,-21.973,3.418,10.742,-2.930
1789912357.033180,-20.996,4.395,10.742,-7.324
1789912357.037016,-26.855,4.395,8.789,-11.719
1789912357.040852,-15.137,7.324,8.301,-17.090
1789912357.044688,-27.832,1.465,4.395,-35.645
1789912357.048523,-38.574,-5.371,-4.395,-31.738
1789912357.052359,-36.133,-7.324,-3.906,-28.320
1789912357.056195,-36.133,-9.766,1.953,-30.273
1789912357.060030,-29.785,-6.348,13.184,-21.973
1789912357.064922,-28.809,0.977,20.508,-13.672
1789912357.068759,-42.480,-0.488,12.695,-21.484
1789912357.072596,-55.664,-2.930,8.301,-28.320
1789912357.076432,-62.012,-5.859,5.371,-26.855
1789912357.080269,-58.594,-8.789,6.836,-23.926
1789912357.084106,-58.594,-7.324,7.812,-19.043
1789912357.087943,-67.383,-8.789,2.441,-31.250
1789912357.091779,-67.871,-5.859,1.465,-27.832
1789912357.095616,-63.965,-5.371,-1.465,-25.879
1789912357.099453,-61.035,-7.324,-4.395,-32.227
1789912357.103290,-71.289,-13.184,-4.883,-25.879
1789912357.107126,-71.777,-14.648,-10.742,-30.762
1789912357.111940,-71.289,-15.625,-19.531,-49.316
1789912357.115778,-61.035,-11.719,-19.043,-50.293
1789912357.119616,-60.059,-4.883,-11.230,-40.527
1789912357.123453,-66.895,-10.254,-8.789,-46.387
1789912357.127291,-54.199,-11.719,-9.766,-42.969
1789912357.131129,-51.758,-11.230,-15.625,-48.340
1789912357.134966,-61.035,-15.625,-20.020,-55.176
1789912357.138804,-57.129,-17.090,-20.508,-55.176
1789912357.142642,-61.035,-11.719,-19.531,-43.945
1789912357.146479,-77.637,-11.230,-18.066,-39.551
1789912357.150317,-71.289,-10.742,-17.578,-54.688
1789912357.154155,-66.895,-12.207,-12.695,-48.340
1789912357.158898,-73.730,-13.184,-13.184,-43.945
1789912357.162737,-72.266,-7.324,-20.020,-49.805
1789912357.166575,-71.777,-6.836,-14.648,-52.246
1789912357.170414,-64.453,-8.301,-16.602,-50.293
1789912357.174252,-49.805,-14.648,-19.531,-56.641
1789912357.178091,-61.523,-20.996,-22.949,-57.617
1789912357.181929,-75.195,-20.508,-22.461,-53.223
1789912357.185768,-67.383,-17.578,-24.414,-49.316
1789912357.189606,-76.172,-17.090,-29.785,-39.551
1789912357.193445,-82.031,-15.137,-27.832,-49.805
1789912357.197284,-67.383,-9.766,-26.367,-66.895
1789912357.201122,-57.617,-8.789,-22.949,-63.965
1789912357.205797,-53.711,-4.883,-19.531,-57.129
1789912357.209636,-58.594,-0.488,-19.531,-58.105
1789912357.213476,-55.176,-1.953,-17.578,-58.594
1789912357.217315,-52.246,-1.465,-14.648,-53.711
1789912357.221154,-66.406,2.930,-17.090,-53.223
1789912357.224994,-67.871,5.371,-8.789,-65.430
1789912357.228833,-61.035,5.859,-7.324,-73.242
1789912357.232672,-57.617,1.465,-17.090,-63.965
1789912357.236511,-54.199,0.977,-17.090,-62.988
1789912357.240351,-60.059,2.930,-18.555,-67.383
1789912357.244190,-56.152,3.906,-13.184,-58.594
1789912357.248029,-54.199,2.930,-8.301,-57.617
1789912357.252634,-54.199,10.742,-4.883,-47.363
1789912357.256474,-44.434,19.531,-4.395,-37.598
1789912357.260314,-36.621,12.207,-1.953,-41.504
1789912357.264154,-25.879,10.254,-1.953,-46.387
1789912357.267994,-16.602,11.719,-6.348,-46.875
1789912357.271834,-9.277,14.160,-4.883,-33.203
1789912357.275674,-18.555,17.090,-5.371,-34.668
1789912357.279514,-26.367,20.508,2.930,-35.156
1789912357.283354,-14.160,31.738,7.324,-30.762
1789912357.287194,-16.113,32.715,3.906,-29.785
1789912357.291034,-27.344,27.344,5.371,-28.320
1789912357.294874,-31.250,29.785,2.441,-35.156
1789912357.299848,-19.043,33.203,4.395,-32.227
1789912357.303689,-4.395,32.227,2.441,-31.738
1789912357.307530,-7.812,26.855,3.418,-45.410
1789912357.311371,-21.484,25.391,-0.977,-60.547
1789912357.315212,-31.250,27.832,-7.812,-62.988
1789912357.319053,-35.156,22.461,-4.883,-50.781
1789912357.322894,-27.832,17.578,-6.348,-42.969
1789912357.326735,-30.273,13.184,-5.859,-50.293
1789912357.330576,-40.039,12.695,-5.371,-48.340
1789912357.334417,-38.574,16.113,-11.719,-41.992
1789912357.338259,-38.086,18.066,-14.160,-40.039
1789912357.342099,-30.762,26.367,-9.766,-38.574
1789912357.346566,-59.082,36.133,-5.859,-48.828
1789912357.350407,-149.414,37.598,-6.836,-61.035
1789912357.354249,-196.289,37.109,-16.602,-63.477
1789912357.358091,-203.125,35.645,-26.855,-65.430
1789912357.361932,-216.309,32.715,-32.715,-84.961
1789912357.365774,-204.590,56.641,-30.762,-94.238
1789912357.369616,-191.406,83.496,-36.133,-90.820
1789912357.373457,-203.613,87.891,-52.734,-101.074
1789912357.377299,-209.473,99.609,-54.199,-109.863
1789912357.381140,-196.777,116.699,-44.434,-100.586
1789912357.384982,-198.730,122.070,-42.969,-107.422
1789912357.388824,-207.031,118.652,-44.434,-122.070
1789912357.393254,-189.941,116.699,-40.039,-134.277
1789912357.397096,-194.824,116.211,-36.133,-163.086
1789912357.400938,-198.730,118.652,-39.062,-139.160
1789912357.404780,-198.242,117.676,-41.504,-93.750
1789912357.408622,-199.219,115.723,-31.738,-84.961
1789912357.412464,-191.406,111.816,-29.785,-91.797
1789912357.416306,-188.477,104.492,-29.785,-86.914
1789912357.420148,-188.965,95.215,-24.902,-87.891
1789912357.423990,-181.641,92.773,-27.344,-94.727
1789912357.427833,-170.410,90.332,-35.645,-89.844
1789912357.431675,-160.156,84.961,-31.250,-83.984
1789912357.435517,-145.020,82.031,-24.414,-75.684
1789912357.440300,-160.156,74.707,-30.762,-74.707
1789912357.444143,-168.945,68.359,-33.691,-81.543
1789912357.447986,-154.297,63.965,-29.785,-73.730
1789912357.451829,-141.602,56.641,-26.855,-62.012
1789912357.455672,-131.348,51.270,-26.855,-63.965
1789912357.459515,-132.324,52.246,-24.902,-56.641
1789912357.463358,-134.277,46.387,-21.484,-46.387
1789912357.467201,-127.441,39.551,-20.508,-64.941
1789912357.471044,-116.211,37.109,-21.484,-75.684
1789912357.474887,-98.633,32.715,-22.949,-53.711
1789912357.478730,-88.379,26.855,-22.949,-43.945
1789912357.482573,-112.305,18.066,-26.367,-60.059
1789912357.487453,-115.723,16.602,-23.438,-65.918
1789912357.491297,-109.863,18.066,-19.531,-48.828
1789912357.495141,-112.305,16.602,-20.996,-54.199
1789912357.498985,-97.656,14.648,-16.113,-57.129
1789912357.502828,-96.680,10.254,-16.113,-51.758
1789912357.506672,-98.145,8.301,-26.367,-58.594
1789912357.510516,-93.262,6.836,-32.715,-66.895
1789912357.514360,-96.191,4.395,-28.809,-72.266
1789912357.518204,-91.309,5.859,-22.949,-68.359
1789912357.522048,-86.426,6.348,-21.973,-65.918
1789912357.525892,-79.590,7.812,-19.043,-74.219
1789912357.529736,-74.219,10.254,-17.090,-62.500
1789912357.534396,-83.496,10.742,-14.648,-59.082
1789912357.538241,-77.637,11.230,-15.625,-57.617
1789912357.542085,-61.523,11.230,-16.113,-47.852
1789912357.545930,-51.270,10.742,-15.137,-84.473
1789912357.549774,-56.152,8.301,-11.719,-96.680
1789912357.553619,-62.988,5.371,-9.277,-79.590
1789912357.557464,-53.711,4.883,-18.066,-75.684
1789912357.561308,-55.176,3.906,-20.508,-66.895
1789912357.565153,-71.289,2.441,-18.555,-55.664
1789912357.568997,-60.547,5.371,-16.602,-49.805
1789912357.572842,-48.828,9.277,-16.113,-54.199
1789912357.576687,-44.922,12.207,-13.672,-56.152
1789912357.581707,-44.434,13.672,-9.277,-67.871
1789912357.585553,-44.434,14.160,-5.859,-60.059
1789912357.589399,-51.270,11.230,-9.766,-48.828
1789912357.593244,-51.270,2.441,-14.160,-64.453
1789912357.597090,-47.363,3.418,-13.672,-70.312
1789912357.600935,-53.711,4.883,-16.113,-64.453
1789912357.604781,-48.340,8.301,-11.719,-78.613
1789912357.608627,-47.852,10.254,-10.254,-85.449
1789912357.612472,-52.246,5.371,-12.207,-59.082
1789912357.616318,-45.898,1.465,-15.137,-74.219
1789912357.620163,-37.109,0.488,-13.184,-83.008
1789912357.624009,-32.715,1.953,-12.207,-70.801
1789912357.628559,-37.109,-1.953,-14.648,-87.891
1789912357.632405,-36.133,-4.883,-20.508,-94.238
1789912357.636252,-41.992,-8.789,-19.531,-87.402
1789912357.640098,-46.387,-11.719,-18.555,-77.148
1789912357.643944,-37.598,-10.742,-24.902,-73.730
1789912357.647790,-47.363,-10.254,-23.438,-75.684
1789912357.651636,-49.805,-15.625,-24.414,-81.055
1789912357.655483,-58.594,-22.461,-24.414,-88.379
1789912357.659329,-73.242,-21.973,-23.926,-94.238
1789912357.663175,-69.336,-19.531,-28.809,-101.074
1789912357.667021,-64.941,-18.066,-25.879,-94.238
1789912357.670867,-62.500,-20.508,-22.949,-79.590
1789912357.675353,-64.941,-21.484,-24.902,-83.496
1789912357.679199,-53.711,-23.926,-24.414,-126.953
1789912357.683046,-63.477,-24.902,-26.367,-140.625
1789912357.686893,-80.566,-19.043,-29.297,-107.910
1789912357.690740,-82.031,-27.832,-31.250,-109.375
1789912357.694587,-88.867,-36.133,-28.320,-110.840
1789912357.698433,-87.402,-30.762,-26.367,-87.402
1789912357.702280,-84.473,-30.273,-23.438,-77.637
1789912357.706127,-88.379,-30.762,-22.949,-106.934
1789912357.709973,-75.684,-36.133,-27.832,-119.629
1789912357.713820,-73.242,-45.898,-28.809,-115.234
1789912357.717667,-83.984,-46.387,-29.785,-121.094
1789912357.722102,-83.008,-52.734,-36.133,-117.188
1789912357.725949,-87.402,-59.570,-34.180,-111.328
1789912357.729796,-83.984,-58.105,-37.109,-118.164
1789912357.733643,-72.754,-54.688,-41.504,-108.398
1789912357.737491,-69.336,-52.246,-39.062,-94.238
1789912357.741338,-59.082,-53.223,-32.715,-99.121
1789912357.745185,-61.523,-50.293,-34.668,-104.492
1789912357.749032,-75.195,-51.758,-36.621,-125.000
1789912357.752880,-61.035,-58.105,-35.156,-128.418
1789912357.756727,-65.918,-57.129,-40.039,-108.398
1789912357.760574,-80.566,-52.246,-37.598,-104.492
1789912357.764421,-91.797,-61.523,-46.387,-109.863
1789912357.768847,-113.770,-69.824,-56.641,-119.629
1789912357.772694,-116.211,-66.406,-55.664,-125.977
1789912357.776542,-102.539,-61.523,-54.688,-117.676
1789912357.780390,-104.492,-59.082,-55.664,-117.676
1789912357.784237,-91.797,-60.547,-49.316,-113.770
1789912357.788085,-85.449,-62.988,-51.758,-107.910
1789912357.791933,-91.797,-60.547,-57.129,-97.656
1789912357.795781,-81.055,-57.617,-52.734,-99.609
1789912357.799628,-84.473,-61.523,-55.664,-104.980
1789912357.803476,-87.402,-63.965,-55.664,-107.910
1789912357.807324,-72.266,-62.988,-53.223,-110.840
1789912357.811172,-70.312,-59.570,-54.199,-102.539
1789912357.815995,0.000,-53.223,-46.875,-110.352
1789912357.819843,0.000,-50.293,-39.062,-117.676
1789912357.823692,0.000,-46.875,-38.574,-98.145
1789912357.827540,0.000,-38.574,-36.133,-83.496
1789912357.831389,0.000,-31.738,-32.715,-71.777
1789912357.835237,0.000,-34.180,-35.156,-82.520
1789912357.839086,0.000,-27.832,-29.297,-80.078
1789912357.842934,0.000,-23.926,-31.738,-63.965
1789912357.846783,0.000,-23.438,-36.133,-64.941
1789912357.850631,0.000,-19.531,-30.762,-60.059
1789912357.854480,0.000,-18.066,-27.832,-59.570
1789912357.858328,0.000,-12.207,-21.484,-59.082
1789912357.862982,-11.719,-5.371,-16.602,-53.711
1789912357.866831,-21.973,-8.789,-17.090,-58.594
1789912357.870680,-35.156,-1.465,-14.648,-66.895
1789912357.874529,-22.461,12.207,-8.301,-55.664
1789912357.878379,-18.066,7.812,-4.395,-49.316
1789912357.882228,-32.715,1.465,-6.348,-63.965
1789912357.886077,-16.113,8.789,-5.859,-68.359
1789912357.889926,14.648,19.043,-1.953,-59.082
1789912357.893775,12.695,28.809,-2.441,-45.898
1789912357.897624,-10.742,35.645,0.000,-29.785
1789912357.901474,-6.348,30.762,0.000,-38.574
1789912357.905323,13.672,23.926,-0.977,-30.273
1789912357.909917,11.719,23.438,0.977,-15.137
1789912357.913767,-5.859,20.508,6.836,0.488
1789912357.917616,-1.953,22.461,7.812,12.695
1789912357.921466,4.883,23.438,2.930,4.883
1789912357.925316,-0.977,20.996,2.441,-18.066
1789912357.929166,-0.977,15.625,-1.465,-20.020
1789912357.933015,-7.812,14.648,-6.348,-33.203
1789912357.936865,-26.367,15.625,-9.277,-48.340
1789912357.940715,-23.438,15.625,-13.672,-33.691
1789912357.944565,-5.371,23.926,-11.230,-45.410
1789912357.948414,-16.602,28.320,-11.230,-56.152
1789912357.952264,-37.109,24.414,-15.625,-47.852
1789912357.956837,-31.250,20.508,-13.184,-45.898
1789912357.960687,-24.414,19.531,-14.160,-65.430
1789912357.964538,-43.457,13.672,-15.137,-56.641
1789912357.968388,-52.246,15.625,-16.602,-42.480
1789912357.972238,-32.715,24.902,-19.043,-60.059
1789912357.976089,-27.832,24.414,-22.949,-53.711
1789912357.979939,-38.086,21.973,-23.438,-51.758
1789912357.983789,-46.875,13.184,-20.996,-42.480
1789912357.987640,-42.480,10.254,-18.066,-20.508
1789912357.991490,-46.875,16.113,-12.207,-22.461
1789912357.995340,-56.641,10.254,-15.137,-37.598
1789912357.999191,-70.801,4.883,-27.344,-52.246
1789912358.003696,-61.035,12.207,-36.621,-28.809
1789912358.007546,-54.199,8.301,-36.621,1.953
1789912358.011397,-70.801,6.348,-41.992,18.066
1789912358.015248,-71.289,6.836,-41.016,28.809
1789912358.019099,-68.848,3.906,-41.504,34.668
1789912358.022950,-75.684,11.230,-42.480,31.250
1789912358.026801,-64.453,17.578,-40.527,19.043
1789912358.030652,-54.688,21.484,-45.898,19.043
1789912358.034503,-67.383,19.043,-42.969,19.043
1789912358.038353,-64.453,20.020,-37.598,10.742
1789912358.042204,-59.570,22.949,-35.645,15.625
1789912358.046055,-55.664,21.484,-41.016,5.859
1789912358.050497,-64.941,16.113,-48.828,-30.762
1789912358.054348,-78.613,11.230,-42.969,-35.156
1789912358.058199,-67.871,15.137,-35.156,-10.254
1789912358.062051,-49.805,14.648,-32.227,-13.184
1789912358.065902,-46.387,13.184,-33.203,-18.555
1789912358.069753,-42.969,22.949,-31.250,-8.301
1789912358.073605,-42.480,26.367,-31.738,-18.066
1789912358.077456,-40.527,25.391,-37.109,-28.320
1789912358.081307,-41.504,26.367,-38.574,-38.574
1789912358.085159,-54.199,18.555,-39.551,-44.922
1789912358.089010,-17.578,17.090,-35.156,-30.762
1789912358.092861,-22.949,20.996,-31.250,-24.414
1789912358.097268,-59.570,17.090,-33.691,-27.832
1789912358.101120,-61.523,15.625,-33.203,-43.945
1789912358.104971,-3.418,20.020,-27.832,-50.293
1789912358.108823,38.574,27.832,-19.043,-26.367
1789912358.112675,-33.691,33.691,-13.672,-15.625
1789912358.116527,-86.914,38.086,-9.766,-23.438
1789912358.120378,-55.176,36.133,-3.418,15.625
1789912358.124230,-8.789,30.762,-4.395,0.977
1789912358.128082,-35.156,40.039,-1.953,-38.086
1789912358.131933,-74.219,42.969,7.324,13.184
1789912358.135785,-68.848,38.086,8.301,23.926
1789912358.139637,-64.941,36.621,3.418,-25.879
1789912358.144337,-79.102,42.969,2.441,-66.406
1789912358.148189,-34.668,56.152,6.348,-35.156
1789912358.152042,-0.488,72.266,8.301,-9.766
1789912358.155894,-62.500,85.449,14.160,-34.180
1789912358.159746,-102.051,96.191,21.484,-19.043
1789912358.163599,-71.777,113.281,27.344,-9.766
1789912358.167451,-41.016,122.070,31.738,-44.922
1789912358.171304,-73.730,116.699,33.691,-39.551
1789912358.175156,-55.664,120.605,43.945,-42.480
1789912358.179008,-81.055,139.160,55.664,-72.266
1789912358.182861,-153.809,158.203,62.500,-40.039
1789912358.186713,-119.629,172.852,73.730,-65.430
1789912358.191367,-73.730,189.941,83.496,-71.777
1789912358.195220,-62.012,219.727,96.191,-19.043
1789912358.199073,-54.688,248.047,100.586,7.324
1789912358.202926,-29.785,266.113,103.027,-13.672
1789912358.206779,-30.762,282.715,106.934,-41.016
1789912358.210632,-35.156,295.410,112.305,-32.227
1789912358.214485,-27.344,296.387,115.723,-40.527
1789912358.218338,-19.531,291.504,118.164,-29.785
1789912358.222191,-12.207,294.434,125.977,-47.363
1789912358.226044,23.438,304.199,131.348,-67.383
1789912358.229897,30.762,311.035,129.883,-40.527
1789912358.233750,29.297,311.035,129.883,-32.227
1789912358.238358,41.016,321.777,131.348,-41.992
1789912358.242211,36.133,333.008,129.883,-43.457
1789912358.246065,34.180,330.078,132.324,-26.855
1789912358.249918,26.367,323.730,139.648,-23.438
1789912358.253772,5.859,311.035,141.602,-39.062
1789912358.257625,-6.348,300.781,132.324,-40.527
1789912358.261479,1.953,291.504,128.906,-38.574
1789912358.265332,-23.438,278.320,126.465,-45.410
1789912358.269186,-48.828,269.531,122.070,-39.062
1789912358.273040,-27.832,252.930,117.188,-32.227
1789912358.276893,-26.367,233.887,112.305,-30.762
1789912358.280747,-33.691,217.773,109.375,-33.691
1789912358.285307,-34.668,207.031,111.816,-46.387
1789912358.289161,-38.574,196.777,108.398,-32.715
1789912358.293015,-48.828,177.734,90.820,-19.043
1789912358.296869,-43.457,161.133,84.473,-36.133
1789912358.300723,-40.527,151.855,78.613,-36.133
1789912358.304577,-40.527,144.531,65.430,-30.273
1789912358.308431,-49.805,133.789,52.246,-52.246
1789912358.312285,-53.711,117.188,44.434,-56.152
1789912358.316139,-59.082,103.027,38.086,-41.992
1789912358.319993,-69.336,91.309,34.180,-42.969
1789912358.323848,-67.871,85.938,34.180,-41.504
1789912358.327702,-59.082,81.543,29.785,-51.758
1789912358.332236,-60.059,71.289,27.344,-52.734
1789912358.336091,-69.336,64.453,23.438,-37.598
1789912358.339946,-81.543,53.223,16.113,-43.457
1789912358.343800,-82.031,41.992,13.184,-59.082
1789912358.347655,-72.754,35.645,10.254,-46.387
1789912358.351509,-65.918,33.203,6.836,-45.410
1789912358.355364,-79.102,26.367,0.000,-72.266
1789912358.359218,-100.098,16.113,-9.766,-59.570
1789912358.363073,-94.727,9.277,-11.719,-36.133
1789912358.366928,-85.938,-0.488,-19.043,-39.551
1789912358.370782,-95.215,-10.254,-23.438,-38.086
1789912358.374637,-114.258,-20.020,-24.414,-41.504
1789912358.379116,-116.699,-23.926,-29.297,-53.711
1789912358.382971,-115.234,-26.367,-31.738,-65.430
1789912358.386826,-106.445,-32.715,-36.133,-68.848
1789912358.390681,-90.332,-31.250,-37.598,-56.152
1789912358.394536,-75.684,-31.250,-38.574,-37.109
1789912358.398391,-89.844,-38.086,-36.621,-24.414
1789912358.402246,-86.426,-39.062,-38.086,-28.809
1789912358.406101,-75.684,-43.945,-39.551,-19.531
1789912358.409956,-74.707,-45.898,-42.480,-10.254
1789912358.413811,-67.871,-48.828,-50.781,-29.297
1789912358.417666,-63.965,-53.223,-49.805,-34.668
1789912358.421522,-58.105,-50.781,-43.945,-32.715
1789912358.425910,-66.406,-52.734,-46.875,-36.133
1789912358.429765,-63.965,-60.059,-48.340,-42.969
1789912358.433621,-51.758,-57.129,-40.527,-32.227
1789912358.437476,-35.645,-47.852,-38.086,-23.438
1789912358.441332,-24.414,-43.945,-42.480,-41.992
1789912358.445187,-27.832,-35.645,-39.062,-45.410
1789912358.449043,-26.855,-26.855,-35.156,-10.742
1789912358.452898,-16.602,-23.438,-31.250,15.625
1789912358.456753,-10.742,-24.414,-34.668,9.766
1789912358.460609,-9.766,-27.344,-31.738,17.578
1789912358.464464,3.906,-25.879,-20.996,21.973
1789912358.468320,14.648,-24.902,-23.438,11.719
1789912358.472664,9.277,-25.879,-21.484,12.695
1789912358.476520,7.812,-22.461,-22.461,26.367
1789912358.480376,0.000,-19.043,-30.762,24.414
1789912358.484232,17.578,-20.996,-30.762,19.531
1789912358.488087,34.668,-24.414,-29.785,36.133
1789912358.491943,24.414,-19.531,-25.879,29.297
1789912358.495799,15.625,-16.602,-25.879,22.949
1789912358.499655,11.719,-26.855,-37.109,41.016
1789912358.503510,12.695,-32.227,-43.457,41.016
1789912358.507366,13.184,-26.367,-41.016,42.969
1789912358.511222,12.207,-23.438,-39.062,42.480
1789912358.515078,4.395,-23.438,-37.598,25.391
1789912358.519373,-7.812,-29.785,-37.109,17.090
1789912358.523229,2.441,-35.156,-34.668,32.715
1789912358.527085,5.859,-33.691,-36.133,36.621
1789912358.530941,-12.207,-33.203,-42.969,34.180
1789912358.534797,-4.883,-31.738,-41.992,37.109
1789912358.538654,11.719,-27.344,-39.551,49.805
1789912358.542510,11.230,-27.832,-40.039,54.199
1789912358.546366,-1.465,-33.691,-40.039,46.387
1789912358.550222,-4.883,-33.203,-38.574,43.457
1789912358.554078,-11.719,-36.621,-39.551,23.438
1789912358.557934,-15.137,-37.598,-39.551,7.324
1789912358.561790,-3.418,-32.715,-37.109,20.020
1789912358.566390,-5.859,-31.250,-39.062,25.391
1789912358.570247,-3.418,-30.273,-37.598,27.832
1789912358.574103,0.977,-29.785,-35.645,23.926
1789912358.577960,3.418,-27.344,-36.621,10.254
1789912358.581816,-8.301,-31.250,-39.551,4.883
1789912358.585673,-21.484,-36.621,-41.992,5.371
1789912358.589530,-11.230,-35.156,-41.016,7.324
1789912358.593386,-11.719,-32.715,-36.133,8.301
1789912358.597243,-26.855,-32.715,-37.598,2.441
1789912358.601099,-21.973,-36.133,-43.945,1.953
1789912358.604956,-17.090,-37.109,-45.898,1.953
1789912358.608813,-27.832,-29.785,-42.480,11.719
1789912358.613375,-35.645,-29.297,-39.062,16.113
1789912358.617232,-42.480,-31.738,-34.180,7.812
1789912358.621089,-36.621,-30.762,-28.809,8.789
1789912358.624946,-27.832,-26.855,-31.738,18.555
1789912358.628803,-31.738,-27.344,-34.668,10.742
1789912358.632661,-29.297,-32.715,-39.062,-5.371
1789912358.636518,-23.438,-28.809,-40.527,0.488
1789912358.640375,-41.016,-24.414,-39.551,9.766
1789912358.644232,-54.688,-29.785,-42.480,6.348
1789912358.648089,-46.875,-30.273,-45.898,5.371
1789912358.651946,-58.105,-29.785,-47.363,-11.719
1789912358.655803,-73.730,-35.156,-44.434,-16.113
1789912358.660305,-71.777,-36.133,-42.480,1.465
1789912358.664162,-70.801,-41.504,-43.457,-29.785
1789912358.668020,-65.918,-40.039,-39.551,-49.316
1789912358.671877,-56.152,-33.691,-37.109,-16.113
1789912358.675735,-58.105,-35.156,-42.969,3.418
1789912358.679592,-67.871,-32.227,-38.574,-3.418
1789912358.683450,-71.289,-30.762,-35.156,-11.719
1789912358.687307,-66.406,-31.738,-36.621,2.930
1789912358.691165,-70.801,-37.598,-37.598,15.137
1789912358.695023,-77.637,-36.133,-34.180,6.348
1789912358.698880,-67.383,-30.762,-30.762,3.906
1789912358.702738,-38.086,-27.832,-31.738,-10.254
1789912358.707520,-49.316,-33.691,-35.645,-20.020
1789912358.711378,-80.078,-37.598,-34.668,-16.602
1789912358.715236,-81.543,-32.227,-24.902,-11.719
1789912358.719094,-80.078,-32.227,-25.391,-10.254
1789912358.722952,-76.172,-36.621,-31.738,-28.320
1789912358.726810,-73.242,-41.504,-30.273,-31.738
1789912358.730669,-72.754,-40.527,-29.297,-26.367
1789912358.734527,-67.871,-37.109,-33.691,-8.301
1789912358.738385,-72.266,-33.691,-36.621,9.277
1789912358.742243,-69.336,-29.785,-36.133,-12.695
1789912358.746101,-56.641,-28.320,-30.762,-25.879
1789912358.749959,-59.570,-26.855,-27.344,-15.137
1789912358.754368,0.000,-30.762,-28.809,-9.766
1789912358.758226,0.000,-29.297,-27.344,-1.953
1789912358.762085,0.000,-26.855,-26.367,0.977
1789912358.765944,0.000,-30.273,-27.832,-6.836
1789912358.769802,0.000,-29.297,-27.832,3.906
1789912358.773661,0.000,-24.414,-27.832,-3.906
1789912358.777519,0.000,-22.949,-32.227,-31.738
1789912358.781378,0.000,-25.879,-32.715,-28.809
1789912358.785236,0.000,-22.949,-26.367,-3.418
1789912358.789095,0.000,-20.020,-26.855,-9.766
1789912358.792953,0.000,-20.996,-28.809,-16.602
1789912358.796812,0.000,-19.531,-21.973,-2.930
1789912358.801176,-56.152,-20.996,-20.020,-5.859
1789912358.805034,-63.477,-21.484,-24.902,5.859
1789912358.808893,-55.664,-17.578,-21.973,12.207
1789912358.812752,-48.828,-16.113,-20.508,0.977
1789912358.816611,-39.062,-20.020,-25.879,0.000
1789912358.820470,-39.551,-25.879,-22.949,7.812
1789912358.824329,-44.434,-24.414,-25.391,9.277
1789912358.828188,-39.062,-21.484,-25.879,9.766
1789912358.832047,-58.594,-23.438,-28.320,-8.301
1789912358.835906,-80.566,-19.043,-28.809,-0.488
1789912358.839765,-66.406,-18.066,-30.273,10.742
1789912358.843624,-55.176,-12.695,-34.668,8.789
1789912358.848610,-48.828,-9.766,-32.227,6.836
1789912358.852470,-63.477,-22.461,-36.133,-23.926
1789912358.856329,-92.773,-23.438,-36.133,-30.273
1789912358.860189,-80.078,-18.066,-34.668,-24.902
1789912358.864049,-73.242,-23.926,-37.109,-26.855
1789912358.867908,-60.547,-18.066,-33.691,-17.090
1789912358.871768,-57.129,-9.766,-36.133,-7.812
1789912358.875628,-72.754,-19.531,-34.180,-14.160
1789912358.879487,-72.754,-20.508,-35.156,-15.137
1789912358.883347,-63.477,-12.695,-36.133,-1.953
1789912358.887207,-53.711,-12.207,-31.738,9.277
1789912358.891066,-62.988,-11.719,-30.762,12.207
1789912358.895331,-63.965,-19.531,-30.273,4.395
1789912358.899191,-48.340,-22.949,-28.809,10.254
1789912358.903050,-46.875,-14.648,-26.367,3.906
1789912358.906910,-64.941,-16.602,-26.367,-9.277
1789912358.910770,-73.242,-21.973,-30.273,-20.020
1789912358.914630,-67.383,-18.555,-33.203,-18.066
1789912358.918490,-58.594,-14.648,-28.320,-3.906
1789912358.922350,-56.152,-20.020,-24.902,-11.719
1789912358.926210,-67.871,-23.926,-25.391,-7.324
1789912358.930070,-59.570,-22.949,-29.785,-4.883
1789912358.933930,-68.359,-23.438,-33.203,-12.207
1789912358.937790,-77.148,-24.414,-33.203,-4.883
1789912358.942342,-53.711,-14.648,-29.785,-5.859
1789912358.946203,-70.312,-11.230,-27.832,0.977
1789912358.950063,-88.379,-12.207,-32.227,0.488
1789912358.953923,-87.891,-12.207,-33.203,-14.160
1789912358.957784,-91.309,-15.137,-27.832,-26.367
1789912358.961644,-68.848,-13.184,-27.832,-33.691
1789912358.965505,-69.336,-15.137,-32.715,-20.508
1789912358.969365,-94.238,-18.555,-30.273,-11.719
1789912358.973225,-82.031,-15.625,-32.227,-8.789
1789912358.977086,-62.988,-14.160,-36.621,-6.836
1789912358.980946,-64.941,-24.902,-36.133,-19.043
1789912358.984807,-63.965,-29.297,-36.621,-32.715
1789912358.989348,-60.547,-23.926,-35.156,-39.062
1789912358.993209,-69.824,-20.508,-31.250,-33.691
1789912358.997070,-63.965,-21.973,-32.715,-34.180
1789912359.000931,-61.523,-19.043,-30.762,-30.762
1789912359.004791,-78.613,-16.113,-29.785,-3.906
1789912359.008652,-59.570,-18.555,-33.691,-3.906
1789912359.012513,-39.551,-15.625,-31.250,-5.859
1789912359.016374,-42.969,-17.090,-21.973,10.254
1789912359.020235,-45.898,-21.973,-16.602,0.000
1789912359.024096,-42.969,-15.625,-16.113,-2.441
1789912359.027956,-35.156,-11.719,-13.184,9.766
1789912359.031817,-31.738,-7.812,-7.324,17.090
1789912359.036277,-23.438,0.488,0.488,17.578
1789912359.040138,-20.508,-3.906,-2.930,6.836
1789912359.043999,-21.973,-4.395,-3.906,7.812
1789912359.047861,-24.414,-0.977,0.000,22.949
1789912359.051722,-13.184,2.441,-0.488,24.414
1789912359.055583,-4.395,8.789,-1.465,-2.930
1789912359.059444,-6.836,4.395,-4.395,0.488
1789912359.063305,-6.836,-0.488,-4.395,16.113
1789912359.067167,-16.113,0.977,-2.441,23.438
1789912359.071028,-0.977,0.488,0.000,20.020
1789912359.074889,26.855,3.418,4.395,17.090
1789912359.078750,17.578,2.930,5.371,27.832
1789912359.083163,16.602,5.859,0.000,8.789
1789912359.087025,17.578,7.324,-3.418,12.207
1789912359.090886,1.953,2.441,-5.371,27.344
1789912359.094748,-7.324,-0.488,-1.953,18.555
1789912359.098609,0.488,0.488,4.395,11.230
1789912359.102471,9.766,5.859,6.836,7.812
1789912359.106333,2.441,5.859,9.277,15.137
1789912359.110194,-2.441,-0.488,6.836,36.133
1789912359.114056,9.766,6.348,5.859,36.133
1789912359.117918,10.254,10.742,4.395,19.531
1789912359.121779,6.348,1.465,1.465,28.809
1789912359.125641,12.207,-1.465,0.977,30.273
1789912359.130002,0.000,-0.977,0.000,34.668
1789912359.133864,0.000,-4.395,-3.418,23.438
1789912359.137726,0.000,-5.371,-4.395,14.160
1789912359.141588,0.000,-5.371,-0.977,18.555
1789912359.145450,0.000,-6.836,-3.418,25.879
1789912359.149312,0.000,-8.301,-5.859,32.227
1789912359.153173,0.000,-11.719,-6.348,13.672
1789912359.157035,0.000,-13.184,-9.277,8.789
1789912359.160897,0.000,-17.578,-13.184,5.859
1789912359.164759,0.000,-22.461,-17.578,-1.465
1789912359.168621,0.000,-16.602,-15.625,12.695
1789912359.172483,0.000,-17.090,-13.672,9.277
1789912359.176816,-19.043,-21.484,-15.625,13.672
1789912359.180678,-13.672,-20.508,-16.113,16.602
1789912359.184540,-8.789,-24.414,-18.066,12.207
1789912359.188402,-5.859,-24.414,-19.531,10.254
1789912359.192265,-16.113,-26.367,-18.066,0.000
1789912359.196127,-27.832,-27.344,-15.625,2.930
1789912359.199989,-27.832,-21.973,-12.207,9.766
1789912359.203851,-22.949,-20.996,-12.207,19.043
1789912359.207713,-25.879,-24.902,-13.672,7.812
1789912359.211576,-39.551,-23.926,-14.160,-5.371
1789912359.215438,-40.527,-21.973,-15.625,-7.324
1789912359.219300,-29.297,-19.531,-15.137,-3.418
1789912359.223592,-29.785,-21.973,-16.602,-9.277
1789912359.227454,-49.316,-30.273,-18.555,-9.277
1789912359.231317,-53.711,-29.297,-18.555,-14.648
1789912359.235179,-48.340,-28.320,-18.066,-23.926
1789912359.239042,-47.852,-22.949,-16.602,-19.043
1789912359.242904,-45.898,-21.484,-12.695,-17.090
1789912359.246767,-44.434,-28.809,-14.160,-22.949
1789912359.250629,-39.551,-26.855,-19.043,-26.855
1789912359.254491,-35.156,-19.531,-18.555,-21.484
1789912359.258354,-54.688,-23.438,-22.949,-19.043
1789912359.262216,-54.688,-22.461,-20.020,-7.812
1789912359.266079,-55.176,-14.160,-16.113,-12.207
1789912359.270311,-59.570,-13.672,-18.555,-24.902
1789912359.274173,-47.852,-18.066,-15.625,-31.250
1789912359.278036,-39.551,-15.625,-14.160,-26.367
1789912359.281899,-50.781,-13.672,-15.137,-24.414
1789912359.285762,-58.105,-18.066,-14.160,-18.066
1789912359.289624,-36.621,-14.648,-12.207,3.418
1789912359.293487,-45.410,-13.672,-14.160,0.000
1789912359.297350,-52.246,-20.020,-22.461,-15.137
1789912359.301212,-23.926,-17.578,-16.113,-4.395
1789912359.305075,-32.715,-14.648,-1.465,-0.977
1789912359.308938,-62.988,-17.578,-6.836,-31.738
1789912359.312800,-76.660,-19.531,-10.254,-53.711
1789912359.317309,-58.105,-15.137,-8.789,-30.762
1789912359.321172,-23.926,-10.254,-9.277,-21.973
1789912359.325035,-48.828,-18.066,-8.301,-33.203
1789912359.328898,-60.547,-24.902,-6.836,-21.973
1789912359.332761,-55.664,-20.508,-3.418,-16.113
1789912359.336624,-82.031,-12.695,-3.418,-22.461
1789912359.340487,-74.707,-11.230,-4.395,-32.227
1789912359.344351,-61.035,-8.789,-7.324,-31.250
1789912359.348214,-64.453,-3.906,-10.254,-24.414
1789912359.352077,-63.477,-7.324,-14.160,-23.926
1789912359.355940,-50.781,-11.230,-9.766,-27.344
1789912359.359803,-35.645,-12.695,-2.930,-21.484
1789912359.364264,-39.062,-8.301,-4.395,-16.113
1789912359.368127,-46.875,-1.953,0.488,-17.090
1789912359.371991,-42.480,-5.371,3.418,-11.719
1789912359.375854,-45.410,-6.348,-4.395,-18.066
1789912359.379718,-56.641,-8.789,-6.348,-30.762
1789912359.383581,-42.480,-10.254,-8.301,-33.203
1789912359.387444,-4.883,-2.441,-8.789,-16.602
1789912359.391308,-5.371,1.953,-9.277,-15.137
1789912359.395171,-34.180,1.953,-8.301,-10.742
1789912359.399035,-29.785,0.488,-2.930,7.812
1789912359.402899,-18.555,-7.324,-10.742,-0.488
1789912359.406762,-37.109,-15.137,-17.578,-7.812
1789912359.411175,-43.457,-16.602,-15.625,-16.113
1789912359.415039,-39.551,-13.672,-14.648,-13.672
1789912359.418903,-39.551,-10.742,-9.277,-11.230
1789912359.422767,-49.316,-15.137,-6.836,-16.602
1789912359.426631,-49.805,-20.020,-7.812,-6.348
1789912359.430495,-37.598,-18.555,-5.371,-5.371
1789912359.434359,-31.738,-11.719,-7.812,-22.949
1789912359.438222,-40.527,-8.301,-16.113,-28.320
1789912359.442086,-48.340,-8.789,-13.672,-4.395
1789912359.445950,-50.781,-10.742,-9.766,1.953
1789912359.449814,-49.316,-14.648,-9.766,-7.812
1789912359.453678,-51.758,-12.207,-4.395,-10.254
1789912359.458086,0.000,-8.301,0.977,-1.953
1789912359.461950,0.000,-11.719,0.000,9.766
1789912359.465815,0.000,-17.578,-5.371,-2.930
1789912359.469679,0.000,-17.578,-3.906,-6.836
1789912359.473543,0.000,-16.113,-3.418,-0.488
1789912359.477407,0.000,-13.184,-8.789,-17.578
1789912359.481271,0.000,-12.695,-8.301,-26.367
1789912359.485135,0.000,-13.184,-10.254,-32.227
1789912359.488999,0.000,-14.648,-15.137,-27.832
1789912359.492864,0.000,-19.043,-21.973,-12.695
1789912359.496728,0.000,-18.555,-23.438,-16.113
1789912359.500592,0.000,-17.090,-17.090,-13.184
1789912359.504925,-42.480,-16.113,-13.672,-38.574
1789912359.508789,-49.316,-15.137,-14.648,-50.293
1789912359.512654,-58.105,-20.020,-10.254,-18.066
1789912359.516518,-57.617,-23.926,-9.277,-2.930
1789912359.520382,-64.453,-20.508,-12.695,-4.883
1789912359.524247,-60.059,-15.137,-7.812,-7.324
1789912359.528111,-40.039,-7.812,-0.488,-3.418
1789912359.531976,-25.879,-10.742,-0.977,-8.301
1789912359.535840,-33.691,-19.043,-8.789,-26.367
1789912359.539705,-46.875,-24.902,0.000,-31.250
1789912359.543569,-50.781,-25.391,1.465,-26.855
1789912359.547433,-47.363,-21.973,-8.301,-31.250
1789912359.551751,0.000,-23.438,-4.883,-29.785
1789912359.555616,0.000,-23.926,-3.906,-34.180
1789912359.559480,0.000,-21.973,0.488,-28.809
1789912359.563345,0.000,-17.090,5.371,-8.789
1789912359.567210,0.000,-15.137,0.977,-30.762
1789912359.571074,0.000,-12.207,-0.488,-46.875
1789912359.574939,0.000,-11.230,0.488,-19.043
1789912359.578804,0.000,-12.207,-0.977,0.000
1789912359.582669,0.000,-8.789,-0.977,-7.812
1789912359.586533,0.000,-10.742,1.953,-5.371
1789912359.590398,0.000,-7.324,4.883,-2.441
1789912359.594263,0.000,2.441,1.465,-10.254
1789912359.598552,-16.602,-3.418,7.324,-7.324
1789912359.602417,-12.695,-4.883,9.277,-11.230
1789912359.606282,-10.742,0.488,3.906,-26.855
1789912359.610147,-14.648,2.930,5.859,-15.137
1789912359.614012,-6.348,6.836,8.789,2.441
1789912359.617877,-4.883,5.371,10.254,8.789
1789912359.621742,-2.930,8.301,16.113,30.762
1789912359.625607,7.812,17.578,19.531,39.062
1789912359.629472,6.836,24.902,20.020,39.551
1789912359.633337,5.859,26.855,24.902,26.855
1789912359.637202,7.324,29.785,23.926,16.113
1789912359.641066,11.230,34.180,26.855,36.133
1789912359.645288,8.301,29.297,24.902,43.945
1789912359.649153,13.184,30.273,22.949,27.832
1789912359.653018,28.809,36.621,31.738,32.715
1789912359.656883,27.344,34.180,26.855,41.504
1789912359.660748,16.113,32.715,23.438,40.039
1789912359.664613,34.180,35.645,24.902,53.711
1789912359.668478,43.945,33.691,18.555,60.059
1789912359.672344,16.602,32.227,18.066,47.852
1789912359.676209,21.973,27.832,20.996,38.574
1789912359.680074,26.855,21.484,14.160,44.922
1789912359.683939,3.906,21.484,11.230,34.668
1789912359.687804,8.301,27.832,15.137,29.785
1789912359.692320,28.809,24.414,12.207,43.945
1789912359.696185,19.043,25.879,10.254,18.066
1789912359.700051,-9.766,29.785,4.395,-1.953
1789912359.703916,-14.160,22.461,-0.488,13.184
1789912359.707782,-13.184,19.043,0.488,20.996
1789912359.711648,-15.137,20.508,-1.953,26.367
1789912359.715513,-5.859,23.438,-9.766,16.602
1789912359.719378,-15.137,27.344,-2.930,20.020
1789912359.723244,-28.320,21.973,1.465,26.367
1789912359.727110,-20.020,17.090,0.488,27.344
1789912359.730975,-5.371,27.344,1.953,21.973
1789912359.734841,-7.324,25.879,-1.953,3.418
1789912359.739276,-20.020,24.414,-4.395,-15.137
1789912359.743142,-29.785,30.762,-8.789,3.418
1789912359.747007,-36.133,31.250,-11.230,-13.672
1789912359.750873,-42.480,32.227,-10.742,-39.551
1789912359.754739,-48.828,32.715,-13.184,-17.090
1789912359.758605,-50.781,31.250,-13.672,-41.992
1789912359.762471,-53.711,31.738,-16.113,-51.270
1789912359.766337,-57.129,33.691,-22.461,-46.875
1789912359.770203,-54.688,32.227,-23.926,-42.480
1789912359.774069,-60.059,33.203,-22.949,-27.832
1789912359.777935,-61.035,31.250,-22.949,-22.949
1789912359.781800,-42.969,24.902,-26.367,-13.672
1789912359.786196,-38.086,27.344,-26.367,-15.137
1789912359.790062,-58.105,27.344,-22.461,-21.484
1789912359.793928,-58.594,17.578,-26.855,-24.902
1789912359.797795,-27.344,21.484,-24.414,-19.531
1789912359.801661,-22.949,26.367,-11.719,-22.949
1789912359.805527,-43.457,15.137,-13.672,-22.461
1789912359.809393,-55.664,4.395,-21.973,-26.855
1789912359.813259,-37.109,4.395,-19.531,-16.602
1789912359.817126,3.418,9.766,-16.602,0.000
1789912359.820992,-20.508,5.371,-16.113,-9.277
1789912359.824858,-64.453,-1.465,-15.137,-12.207
1789912359.828724,-52.734,2.441,-11.230,-5.859
1789912359.833094,-53.711,3.418,-7.812,-9.766
1789912359.836960,-50.781,-1.953,-13.672,-27.832
1789912359.840827,-1.465,-0.488,-13.184,-27.344
1789912359.844693,-1.465,1.465,-12.207,-7.324
1789912359.848560,-26.855,-4.395,-16.113,5.859
1789912359.852426,-32.227,-4.395,-11.719,13.672
1789912359.856292,-37.598,-0.977,-7.324,-1.465
1789912359.860159,-33.203,-4.395,-9.766,-5.859
1789912359.864026,-25.391,2.441,-14.160,-6.836
1789912359.867892,-35.645,2.441,-6.836,-20.508
1789912359.871758,-67.383,0.488,-7.324,-19.531
1789912359.875625,-62.988,11.719,-15.625,-27.832
1789912359.879976,-17.090,4.883,-10.254,-39.062
1789912359.883842,-45.898,-0.977,-12.207,-41.016
1789912359.887709,-138.672,4.883,-15.137,-52.734
1789912359.891576,-174.805,15.625,-15.625,-39.062
1789912359.895442,-142.090,-3.906,-10.742,-13.184
1789912359.899309,-170.898,-16.602,-12.207,-6.348
1789912359.903176,-288.086,2.441,-18.555,-30.273
1789912359.907043,-411.133,9.766,-31.250,-38.574
1789912359.910910,-534.668,-6.348,-35.645,-24.414
1789912359.914776,-558.594,-15.625,-42.480,-31.738
1789912359.918643,-654.785,-34.668,-53.223,-43.457
1789912359.922510,-721.191,-50.293,-56.641,-53.223
1789912359.926775,-664.062,-60.547,-64.941,-53.223
1789912359.930642,-628.418,-75.195,-71.777,-61.035
1789912359.934509,-642.578,-94.727,-82.031,-73.242
1789912359.938376,-663.086,-110.840,-90.332,-109.863
1789912359.942243,-683.594,-41.016,-117.676,-181.152
1789912359.946110,-617.676,-74.219,-125.000,-171.387
1789912359.949977,-343.750,-176.270,-110.352,-130.371
1789912359.953844,-68.848,-157.715,-141.602,-153.809
1789912359.957711,116.211,-182.617,-171.387,-179.199
1789912359.961578,266.113,-257.812,-183.594,-203.125
1789912359.965445,479.492,-316.895,-203.125,-222.168
1789912359.969312,657.227,-358.887,-223.633,-263.672
1789912359.973583,0.000,-404.297,-257.324,-330.566
1789912359.977451,0.000,-414.062,-286.133,-351.562
1789912359.981318,0.000,-493.164,-272.949,-347.168
1789912359.985185,0.000,-532.227,-276.367,-392.578
1789912359.989052,0.000,-559.570,-276.855,-415.039
1789912359.992920,0.000,-664.062,-244.629,-409.180
1789912359.996787,0.000,-716.797,-219.238,-404.785
1789912360.000654,0.000,-716.309,-209.473,-387.695
1789912360.004521,0.000,-750.000,-198.242,-397.949
1789912360.008388,0.000,-843.750,-170.410,-384.766
1789912360.012256,0.000,-868.652,-168.945,-378.906
1789912360.016123,0.000,-913.086,-173.828,-388.184
1789912360.020402,967.773,-959.961,-174.805,-430.664
1789912360.024269,967.773,-978.027,-167.480,-456.543
1789912360.028137,967.773,-996.582,-143.066,-429.688
1789912360.032004,967.773,-994.629,-124.512,-428.711
1789912360.035872,967.773,-998.047,-94.238,-412.109
1789912360.039739,967.773,-987.305,-75.195,-399.902
1789912360.043607,967.773,-995.605,-48.340,-397.461
1789912360.047474,967.773,-1000.000,-20.996,-391.113
1789912360.051341,967.773,-987.793,-4.395,-386.230
1789912360.055209,967.773,-983.398,24.414,-355.469
1789912360.059076,967.773,-982.910,35.645,-333.984
1789912360.062944,967.773,-986.328,44.922,-337.891
1789912360.067389,967.773,-962.891,74.707,-329.590
1789912360.071257,967.773,-957.520,86.426,-315.918
1789912360.075125,967.773,-940.430,90.332,-305.664
1789912360.078993,967.773,-894.531,97.656,-305.176
1789912360.082860,968.262,-874.512,104.004,-295.898
1789912360.086728,967.773,-854.004,115.234,-257.324
1789912360.090596,967.773,-849.121,126.953,-228.027
1789912360.094464,967.773,-839.355,121.582,-242.676
1789912360.098331,967.773,-825.195,113.770,-236.328
1789912360.102199,967.773,-806.152,120.117,-216.309
1789912360.106067,967.773,-787.109,120.605,-211.426
1789912360.109935,967.773,-777.832,110.840,-204.590
1789912360.114346,967.773,-777.344,115.234,-177.734
1789912360.118214,967.773,-748.047,118.164,-159.668
1789912360.122082,968.750,-724.121,107.422,-174.316
1789912360.125951,965.820,-733.398,101.074,-189.453
1789912360.129819,967.773,-708.496,108.398,-176.270
1789912360.133687,967.773,-709.961,91.309,-163.574
1789912360.137555,891.602,-760.254,28.320,-238.770
1789912360.141423,849.609,-770.996,12.207,-246.582
1789912360.145291,887.695,-748.535,30.273,-178.711
1789912360.149159,868.164,-711.914,21.973,-181.641
1789912360.153027,844.238,-679.199,16.113,-187.012
1789912360.156895,822.754,-657.715,21.973,-158.691
1789912360.161336,800.293,-631.836,22.461,-134.766
1789912360.165204,790.039,-606.445,20.508,-131.348
1789912360.169073,775.391,-581.543,21.973,-123.047
1789912360.172941,783.691,-564.453,29.785,-89.355
1789912360.176810,779.297,-551.758,35.156,-87.891
1789912360.180678,752.441,-531.738,39.062,-71.777
1789912360.184546,721.191,-512.207,37.109,-49.316
1789912360.188415,697.266,-489.746,43.457,-53.711
1789912360.192283,690.430,-477.051,50.781,-42.969
1789912360.196151,647.949,-461.426,43.457,-37.109
1789912360.200020,589.844,-441.895,41.504,-32.227
1789912360.203888,558.594,-433.105,36.621,-13.184
1789912360.208502,529.297,-414.062,31.250,8.301
1789912360.212371,490.723,-390.625,29.785,-2.441
1789912360.216239,441.406,-367.676,30.762,-2.441
1789912360.220108,383.789,-348.633,34.180,17.578
1789912360.223977,350.098,-325.684,38.574,37.109
1789912360.227846,327.637,-296.875,37.598,29.785
1789912360.231714,294.922,-272.949,34.180,11.230
1789912360.235583,269.043,-242.188,30.762,34.668
1789912360.239452,298.340,-213.379,27.832,50.781
1789912360.243321,279.785,-185.059,26.367,41.016
1789912360.247190,249.512,-153.320,22.949,39.062
1789912360.251058,260.742,-115.723,35.156,76.660
1789912360.255365,208.008,-75.195,48.828,90.332
1789912360.259234,160.156,-31.250,56.152,92.773
1789912360.263103,136.719,0.977,58.105,108.398
1789912360.266972,119.141,39.551,64.941,122.070
1789912360.270841,130.371,149.902,138.184,214.355
1789912360.274710,155.762,252.930,209.473,301.758
1789912360.278579,176.758,309.082,231.445,327.637
1789912360.282448,163.086,361.328,253.906,355.957
1789912360.286317,142.090,415.527,273.438,381.348
1789912360.290186,122.559,467.773,294.434,402.344
1789912360.294055,106.934,518.066,320.801,435.547
1789912360.297924,137.207,562.500,337.891,474.609
1789912360.302236,114.746,602.539,346.191,485.352
1789912360.306105,72.754,631.836,356.445,500.977
1789912360.309974,90.820,656.250,359.375,520.996
1789912360.313844,104.980,666.016,354.492,511.230
1789912360.317713,73.730,673.340,344.727,504.883
1789912360.321582,56.152,694.824,326.172,481.934
1789912360.325451,-31.250,706.055,311.523,459.961
1789912360.329321,-149.414,708.496,305.664,476.562
1789912360.333190,-156.250,710.938,299.805,470.703
1789912360.337059,-198.242,711.426,281.738,443.359
1789912360.340928,-229.492,707.520,268.555,433.594
1789912360.344798,-228.516,700.195,265.625,437.988
1789912360.349037,-256.836,712.891,245.605,429.688
1789912360.352907,-228.027,709.961,227.539,415.039
1789912360.356776,-187.988,701.660,224.609,415.039
1789912360.360646,-162.598,704.590,216.797,406.738
1789912360.364515,-155.273,690.918,204.590,392.578
1789912360.368385,-141.113,687.988,195.801,382.324
1789912360.372254,-133.789,690.430,193.848,390.137
1789912360.376123,-123.047,679.688,188.477,392.578
1789912360.379993,-108.398,667.969,181.641,372.070
1789912360.383862,-95.215,655.762,178.711,335.938
1789912360.387732,-82.520,640.137,171.875,311.523
1789912360.391601,-87.891,625.977,160.156,311.523
1789912360.395914,-65.918,615.234,148.438,314.941
1789912360.399783,-38.086,612.305,149.414,312.988
1789912360.403653,-23.926,604.492,146.973,315.430
1789912360.407522,-12.695,592.285,138.672,312.012
1789912360.411392,-12.207,569.336,132.324,294.922
1789912360.415262,-14.648,552.734,126.465,284.180
1789912360.419132,-77.637,476.562,49.316,212.402
1789912360.423001,-233.887,304.199,-117.676,37.109
1789912360.426871,-331.543,185.059,-241.211,-87.402
1789912360.430741,-356.934,143.555,-279.785,-129.883
1789912360.434610,-389.160,119.629,-295.898,-164.062
1789912360.438480,-400.879,94.727,-315.430,-179.199
1789912360.442896,-395.996,77.148,-327.148,-186.035
1789912360.446766,-390.137,72.266,-327.637,-184.570
1789912360.450636,-382.324,59.570,-331.543,-198.242
1789912360.454506,-406.738,25.879,-356.445,-246.582
1789912360.458376,-433.105,-23.438,-399.414,-274.902
1789912360.462246,-449.219,-61.035,-431.641,-283.203
1789912360.466116,-458.008,-73.730,-437.988,-297.852
1789912360.469986,-441.406,-74.707,-436.523,-304.688
1789912360.473856,-413.086,-70.312,-427.246,-301.758
1789912360.477726,-394.531,-62.012,-414.062,-296.387
1789912360.481596,-367.188,-45.410,-397.949,-275.391
1789912360.485466,-341.797,-31.250,-377.930,-255.859
1789912360.489836,-336.914,-23.438,-358.398,-235.352
1789912360.493707,-322.754,-13.184,-335.449,-215.820
1789912360.497577,-307.617,-1.465,-319.824,-211.914
1789912360.501447,-292.480,21.484,-306.641,-204.102
1789912360.505317,-303.223,42.480,-293.457,-173.828
1789912360.509188,-351.074,43.945,-280.273,-157.227
1789912360.513058,-373.535,50.293,-268.066,-186.523
1789912360.516928,-356.934,64.941,-251.953,-189.941
1789912360.520798,-324.707,72.754,-235.352,-145.020
1789912360.524669,-300.781,75.195,-226.562,-138.184
1789912360.528539,-290.039,83.984,-217.773,-147.461
1789912360.532409,-270.020,90.820,-207.031,-121.094
1789912360.536737,-258.301,91.797,-200.684,-92.285
1789912360.540608,-261.719,91.797,-193.848,-83.496
1789912360.544478,-247.559,88.379,-182.617,-76.172
1789912360.548349,-240.234,91.309,-176.270,-83.496
1789912360.552219,-243.652,93.262,-170.898,-96.680
1789912360.556090,-236.328,90.820,-157.715,-85.938
1789912360.559960,-225.098,92.285,-150.391,-80.566
1789912360.563831,-239.258,88.379,-143.066,-79.102
1789912360.567701,-265.137,87.891,-135.742,-60.547
1789912360.571572,-263.672,90.820,-132.324,-54.688
1789912360.575442,-247.070,93.262,-125.000,-59.570
1789912360.579313,-252.930,95.215,-120.605,-51.758
1789912360.583630,-253.906,94.238,-115.723,-73.242
1789912360.587501,-256.836,97.656,-114.746,-81.055
1789912360.591372,-260.742,102.539,-107.910,-59.570
1789912360.595242,-245.605,98.633,-104.492,-39.551
1789912360.599113,-250.000,94.727,-101.562,-42.969
1789912360.602984,-257.812,93.262,-92.773,-47.852
1789912360.606854,-270.996,93.750,-89.844,-48.340
1789912360.610725,-305.664,92.285,-84.473,-40.527
1789912360.614596,-323.730,90.820,-79.590,-31.738
1789912360.618467,-318.848,93.750,-81.055,-23.438
1789912360.622337,-314.941,95.703,-72.266,-18.066
1789912360.626208,-319.336,93.262,-65.430,-23.926
1789912360.630492,-323.242,87.402,-64.941,-31.738
1789912360.634363,-334.961,80.566,-70.801,-56.641
1789912360.638234,-359.863,71.777,-85.938,-72.754
1789912360.642105,-373.047,47.852,-106.934,-88.379
1789912360.645976,-391.113,29.297,-129.395,-104.004
1789912360.649847,-409.668,29.297,-133.789,-112.305
1789912360.653718,-431.152,32.227,-125.000,-90.332
1789912360.657588,-423.340,42.969,-120.117,-83.496
1789912360.661459,-410.156,48.340,-119.141,-104.980
1789912360.665330,-403.809,50.293,-111.816,-92.773
1789912360.669201,-362.305,58.105,-100.098,-75.684
1789912360.673072,-334.473,66.406,-91.797,-77.148
1789912360.677322,-321.289,87.891,-82.520,-65.918
1789912360.681194,-307.129,111.816,-65.430,-46.875
1789912360.685065,-308.594,125.488,-54.199,-26.855
1789912360.688936,-312.012,134.766,-45.410,-16.602
1789912360.692807,-312.012,137.695,-38.086,-15.137
1789912360.696678,-281.738,146.484,-29.785,5.859
1789912360.700549,-248.047,155.762,-18.555,18.066
1789912360.704420,-231.445,161.621,-13.184,24.902
1789912360.708291,-219.727,172.852,-7.324,18.066
1789912360.712162,-198.730,180.664,0.488,1.465
1789912360.716033,-175.293,194.336,14.160,28.320
1789912360.719905,-177.246,202.148,21.484,53.223
1789912360.724120,-197.266,204.590,22.461,51.758
1789912360.727992,-190.430,208.496,26.367,77.148
1789912360.731863,-200.684,208.984,29.785,95.215
1789912360.735734,-246.582,212.891,34.180,98.633
1789912360.739605,-240.234,216.309,35.156,112.305
1789912360.743477,-236.328,219.238,40.527,117.676
1789912360.747348,-243.164,224.609,43.457,126.465
1789912360.751219,-231.445,231.445,45.898,140.625
1789912360.755090,-211.914,227.539,45.410,135.254
1789912360.758962,-211.426,221.191,38.574,126.953
1789912360.762833,-198.730,218.262,38.086,127.441
1789912360.766704,-187.500,216.797,43.457,136.230
1789912360.770874,-188.965,214.355,43.457,119.141
1789912360.774745,-161.621,208.984,29.785,108.887
1789912360.778616,-145.508,205.566,28.320,110.352
1789912360.782488,-139.160,208.008,33.203,87.891
1789912360.786359,-139.160,208.008,33.691,97.656
1789912360.790231,-152.344,193.359,33.691,112.305
1789912360.794102,-129.395,189.453,32.227,120.117
1789912360.797974,-166.992,193.359,33.203,112.305
1789912360.801845,-246.094,189.453,33.691,107.422
1789912360.805717,-267.578,188.965,34.180,108.398
1789912360.809588,-259.277,188.477,38.086,90.332
1789912360.813459,-258.301,183.594,38.574,73.242
1789912360.817845,-247.559,179.199,33.691,63.965
1789912360.821716,-217.285,174.316,33.203,49.805
1789912360.825588,-212.891,176.758,33.691,49.805
1789912360.829460,-212.402,181.641,32.227,40.527
1789912360.833331,-202.148,175.293,31.738,35.156
1789912360.837203,-202.637,174.805,37.109,42.969
1789912360.841075,-185.547,177.246,35.645,29.297
1789912360.844946,-177.734,172.852,27.832,33.691
1789912360.848818,-183.105,167.480,30.762,49.316
1789912360.852690,-172.363,165.039,34.180,45.898
1789912360.856561,-157.715,160.156,32.227,48.828
1789912360.860433,-133.789,160.156,34.668,51.270
1789912360.864844,-133.301,159.180,34.180,47.852
1789912360.868716,-129.883,153.809,28.809,44.434
1789912360.872588,-137.207,149.902,26.367,36.621
1789912360.876460,-140.137,147.461,22.461,25.391
1789912360.880332,-129.395,145.508,21.484,35.645
1789912360.884203,-132.812,145.020,23.438,41.992
1789912360.888075,-132.324,138.672,24.902,34.180
1789912360.891948,-156.250,126.465,22.949,15.625
1789912360.895819,-179.199,119.629,19.043,-9.277
1789912360.899691,-177.246,119.629,13.672,-1.953
1789912360.903563,-158.691,121.094,17.578,12.207
1789912360.907435,-155.273,115.234,20.508,13.672
1789912360.911790,-167.969,111.328,22.949,7.324
1789912360.915662,-157.227,111.328,28.320,-6.836
1789912360.919534,-138.672,107.422,32.715,-4.395
1789912360.923406,-136.719,101.074,39.551,4.395
1789912360.927279,-134.277,94.238,36.133,6.836
1789912360.931151,-128.906,93.750,34.180,6.836
1789912360.935023,-119.141,93.750,33.691,-2.441
1789912360.938895,-102.539,86.426,30.762,-4.883
1789912360.942767,-91.309,87.891,29.297,0.488
1789912360.946640,-97.656,92.285,25.391,7.324
1789912360.950512,-94.727,91.797,24.902,3.418
1789912360.954384,-83.984,88.379,23.926,-17.578
1789912360.958686,0.000,86.914,23.438,-11.719
1789912360.962558,0.000,88.379,24.414,-11.230
1789912360.966431,0.000,86.426,23.926,-9.766
1789912360.970303,0.000,86.426,22.461,-4.883
1789912360.974175,0.000,90.332,24.414,-12.207
1789912360.978048,0.000,94.727,24.902,-5.859
1789912360.981920,0.000,94.727,20.020,-6.836
1789912360.985793,0.000,91.797,20.996,-16.113
1789912360.989665,0.000,93.750,20.996,0.488
1789912360.993537,0.000,98.145,20.996,14.648
1789912360.997410,0.000,96.680,23.438,4.883
1789912361.001282,0.000,97.168,25.391,21.484
1789912361.005531,-35.156,99.121,23.438,33.203
1789912361.009404,-30.273,89.844,17.578,24.414
1789912361.013276,-35.645,83.496,13.672,20.508
1789912361.017149,-53.711,83.496,15.137,5.371
1789912361.021022,-44.922,86.914,15.625,-15.625
1789912361.024894,-33.203,84.961,12.207,-32.715
1789912361.028767,-38.574,81.055,5.859,-31.738
1789912361.032639,-31.250,88.867,9.277,-5.859
1789912361.036512,-29.297,90.332,8.301,-1.953
1789912361.040385,-31.250,82.520,4.395,-14.160
1789912361.044257,-24.902,79.590,8.301,-15.137
1789912361.048130,-35.156,76.660,5.859,-12.695
1789912361.052604,0.000,71.289,5.371,-11.719
1789912361.056477,0.000,69.336,3.418,-16.113
1789912361.060350,0.000,69.336,0.488,-17.578
1789912361.064223,0.000,70.801,2.441,-14.648
1789912361.068096,0.000,69.824,-1.953,-24.414
1789912361.071969,0.000,70.312,-6.348,-33.691
1789912361.075842,0.000,68.848,-8.789,-34.668
1789912361.079715,0.000,70.801,-6.836,-26.855
1789912361.083588,0.000,72.266,-0.977,-19.043
1789912361.087461,0.000,70.312,0.488,-27.344
1789912361.091333,0.000,68.848,0.488,-20.508
1789912361.095206,0.000,62.500,0.000,-4.883
1789912361.099418,-113.770,64.453,2.441,2.930
1789912361.103291,-98.145,67.383,4.883,-2.441
1789912361.107164,-94.727,60.547,4.883,-4.883
1789912361.111037,-91.797,56.641,1.953,7.812
1789912361.114910,-92.285,57.129,1.953,1.465
1789912361.118783,-82.520,53.223,-1.953,-14.160
1789912361.122656,-62.012,55.176,-3.418,-35.156
1789912361.126529,-66.406,58.105,1.465,-27.832
1789912361.130403,-67.871,53.711,0.977,-3.418
1789912361.134276,-63.477,55.176,0.977,-6.348
1789912361.138149,-64.941,56.641,1.465,-10.742
1789912361.142022,-67.383,49.316,-4.395,-20.996
1789912361.146474,-62.012,44.922,-6.348,-29.785
1789912361.150348,-68.359,42.480,-7.324,-17.090
1789912361.154221,-60.547,42.480,-9.277,-22.949
1789912361.158094,-53.223,41.504,-8.301,-32.715
1789912361.161968,-60.547,37.598,-8.789,-36.621
1789912361.165841,-47.363,42.480,-7.324,-55.664
1789912361.169714,-49.316,43.945,-7.324,-65.430
1789912361.173588,-61.035,40.039,-5.371,-62.500
1789912361.177461,-62.988,38.574,-2.930,-59.570
1789912361.181334,-73.730,37.598,-3.418,-58.594
1789912361.185208,-73.242,39.062,-4.883,-56.641
1789912361.189081,-56.152,37.598,-3.418,-43.457
1789912361.193475,-38.574,37.109,-2.441,-28.320
1789912361.197349,-40.039,41.504,-4.883,-28.809
1789912361.201222,-41.504,37.109,-4.883,-37.109
1789912361.205096,-42.480,30.762,-7.812,-53.223
1789912361.208969,-51.270,26.367,-7.812,-65.918
1789912361.212843,-52.246,28.320,-6.836,-70.312
1789912361.216717,-49.316,30.762,-5.859,-58.105
1789912361.220590,-39.551,33.203,-1.465,-43.945
1789912361.224464,-26.855,35.645,0.488,-44.922
1789912361.228337,-19.531,33.691,0.977,-31.250
1789912361.232211,-19.043,31.738,1.953,-19.531
1789912361.236084,-15.625,38.086,11.719,-25.879
1789912361.240416,0.000,46.875,15.625,-23.926
1789912361.244289,0.000,54.688,16.602,-20.996
1789912361.248163,0.000,61.523,18.555,-18.066
1789912361.252037,0.000,64.941,14.160,-21.973
1789912361.255911,0.000,67.871,15.625,-36.621
1789912361.259785,0.000,71.289,18.555,-12.695
1789912361.263659,0.000,71.289,16.113,-6.348
1789912361.267532,0.000,71.289,16.113,-10.742
1789912361.271406,0.000,71.289,13.184,6.836
1789912361.275280,0.000,78.125,16.113,8.789
1789912361.279154,0.000,79.102,20.996,2.441
1789912361.283027,0.000,73.730,14.160,-12.695
1789912361.287320,33.691,78.613,20.020,-18.555
1789912361.291194,45.898,83.496,25.879,0.488
1789912361.295068,55.664,84.473,20.996,5.371
1789912361.298942,59.082,87.891,18.066,5.859
1789912361.302816,46.387,90.332,20.508,3.906
1789912361.306690,59.570,88.867,16.602,-9.277
1789912361.310564,59.082,84.961,11.719,-2.441
1789912361.314438,48.340,80.078,4.395,-7.812
1789912361.318312,59.082,75.195,0.000,-20.508
1789912361.322186,61.035,76.172,3.418,-3.906
1789912361.326060,33.203,78.613,-1.465,-6.836
1789912361.329934,33.203,72.266,-9.766,-36.621
1789912361.334197,46.875,66.895,-13.184,-59.082
1789912361.338071,43.457,65.918,-10.254,-56.152
1789912361.341945,40.039,62.012,-13.184,-55.664
1789912361.345820,24.414,61.035,-22.949,-77.637
1789912361.349694,10.254,53.711,-23.926,-82.520
1789912361.353568,1.465,49.805,-24.902,-67.871
1789912361.357442,7.812,57.129,-25.391,-66.895
1789912361.361316,30.762,59.082,-22.461,-75.684
1789912361.365191,28.809,49.805,-30.762,-82.031
1789912361.369065,-2.441,41.504,-39.062,-84.473
1789912361.372939,-13.672,39.551,-35.156,-91.309
1789912361.376813,-2.441,37.109,-35.645,-93.750
1789912361.381041,-10.742,32.227,-38.086,-98.145
1789912361.384916,-0.977,28.809,-43.945,-115.723
1789912361.388790,-1.953,31.250,-41.992,-132.324
1789912361.392664,-14.160,33.691,-30.762,-116.699
1789912361.396539,-15.625,26.855,-34.180,-107.910
1789912361.400413,-14.160,20.508,-39.551,-141.113
1789912361.404287,-21.484,21.484,-42.480,-150.391
1789912361.408162,-37.109,20.508,-48.828,-145.508
1789912361.412036,-38.574,17.578,-52.246,-151.855
1789912361.415910,-37.598,15.625,-52.246,-149.414
1789912361.419785,-53.711,16.113,-50.293,-164.062
1789912361.423659,-39.551,14.648,-47.852,-145.508
1789912361.427866,-36.133,17.578,-50.293,-145.020
1789912361.431740,-42.969,19.043,-59.082,-162.598
1789912361.435615,-31.738,11.230,-57.129,-158.691
1789912361.439489,-47.363,8.301,-52.734,-164.062
1789912361.443364,-52.246,10.742,-54.688,-178.711
1789912361.447238,-56.641,8.301,-59.082,-193.359
1789912361.451113,-58.105,11.719,-62.012,-179.199
1789912361.454987,-38.086,20.020,-61.035,-187.500
1789912361.458862,-39.551,20.996,-64.941,-205.078
1789912361.462736,-45.410,14.648,-63.965,-180.664
1789912361.466611,-59.082,12.207,-53.711,-166.016
1789912361.470485,-50.781,16.113,-58.594,-201.660
1789912361.474663,-55.664,17.578,-66.895,-225.098
1789912361.478538,-69.824,14.160,-70.801,-206.055
1789912361.482413,-65.430,14.648,-69.336,-208.008
1789912361.486287,-49.805,22.461,-64.941,-219.727
1789912361.490162,-39.551,24.414,-65.430,-221.191
1789912361.494037,-53.223,18.555,-64.453,-200.195
1789912361.497911,-45.898,23.926,-64.941,-198.730
1789912361.501786,-25.879,29.297,-66.406,-225.586
1789912361.505661,-36.133,25.879,-72.754,-227.051
1789912361.509535,-54.688,19.531,-76.172,-210.938
1789912361.513410,-59.082,17.578,-75.195,-216.797
1789912361.517285,-57.617,19.531,-75.684,-233.887
1789912361.521438,-44.922,25.879,-76.172,-230.469
1789912361.525313,-40.527,24.414,-78.125,-223.145
1789912361.529188,-42.969,21.973,-76.172,-208.984
1789912361.533063,-34.180,23.926,-75.684,-220.703
1789912361.536937,-17.090,20.508,-76.660,-233.398
1789912361.540812,-27.344,20.996,-73.730,-213.867
1789912361.544687,-39.062,18.066,-68.848,-183.594
1789912361.548562,-33.691,21.484,-75.195,-200.195
1789912361.552437,-37.598,22.461,-82.031,-222.168
1789912361.556311,-35.645,21.973,-77.637,-218.750
1789912361.560186,-19.043,25.879,-74.707,-226.074
1789912361.564061,-12.207,21.484,-78.125,-238.281
1789912361.568399,-3.906,23.926,-78.613,-237.305
1789912361.572274,7.324,28.320,-77.148,-215.820
1789912361.576149,12.695,25.391,-74.219,-204.102
1789912361.580024,17.578,23.438,-77.148,-218.750
1789912361.583899,13.672,23.926,-83.496,-239.746
1789912361.587774,10.254,26.367,-83.008,-229.004
1789912361.591649,8.789,23.926,-80.566,-206.543
1789912361.595524,0.977,19.043,-83.496,-209.961
1789912361.599399,-1.953,20.020,-86.426,-217.285
1789912361.603274,-0.488,14.160,-87.402,-232.422
1789912361.607149,-12.695,5.859,-86.426,-235.352
1789912361.611024,-18.066,6.348,-91.797,-218.750
1789912361.615415,-18.066,2.441,-104.980,-239.746
1789912361.619291,-35.156,-6.836,-102.539,-243.164
1789912361.623166,-45.898,-8.789,-92.285,-223.633
1789912361.627041,-36.133,-3.906,-91.797,-245.605
1789912361.630916,-21.973,-5.371,-97.168,-259.766
1789912361.634792,-19.043,-12.695,-93.262,-233.887
1789912361.638667,-19.043,-13.184,-94.727,-233.887
1789912361.642542,-27.344,-9.766,-99.609,-247.070
1789912361.646417,-43.457,-8.301,-99.121,-226.074
1789912361.650292,-29.785,-4.395,-100.098,-226.562
1789912361.654168,-31.738,-10.254,-96.191,-242.676
1789912361.658043,-29.297,-15.137,-96.191,-233.398
1789912361.662323,-19.043,-13.672,-100.586,0.000
1789912361.666198,-37.109,-16.113,-98.633,0.000
1789912361.670074,-38.086,-18.555,-98.633,0.000
1789912361.673949,-31.738,-22.949,-100.586,0.000
1789912361.677824,-26.367,-18.555,-99.121,0.000
1789912361.681700,-26.367,-17.578,-95.215,0.000
1789912361.685575,-19.043,-20.020,-94.238,0.000
1789912361.689451,-11.719,-22.461,-92.285,0.000
1789912361.693326,-22.461,-20.508,-99.121,0.000
1789912361.697201,-26.367,-17.090,-108.398,0.000
1789912361.701077,-24.902,-26.367,-105.469,0.000
1789912361.704952,-35.156,-33.691,-104.004,0.000
1789912361.709250,0.000,-35.645,-104.004,-243.652
1789912361.713125,0.000,-35.156,-104.980,-228.516
1789912361.717001,0.000,-42.480,-107.910,-221.680
1789912361.720876,0.000,-38.574,-113.281,-215.820
1789912361.724752,0.000,-30.273,-118.164,-226.562
1789912361.728628,0.000,-36.621,-116.211,-239.258
1789912361.732503,0.000,-45.410,-114.746,-236.816
1789912361.736379,0.000,-44.434,-108.398,-238.770
1789912361.740254,0.000,-39.551,-102.051,-214.844
1789912361.744130,0.000,-40.527,-104.004,-219.727
1789912361.748006,0.000,-41.992,-109.375,-232.422
1789912361.751881,0.000,-40.039,-109.375,-233.398
1789912361.756089,-30.762,-39.551,-102.539,-229.004
1789912361.759965,-25.391,-42.480,-98.145,-204.590
1789912361.763840,-20.020,-39.062,-99.121,-195.801
1789912361.767716,-8.301,-40.039,-98.633,-209.473
1789912361.771592,-7.812,-40.527,-99.609,-223.633
1789912361.775468,-0.977,-31.738,-105.469,-212.891
1789912361.779344,16.602,-19.531,-99.121,-185.059
1789912361.783219,5.371,-21.484,-92.773,-183.594
1789912361.787095,-1.465,-20.508,-94.727,-196.777
1789912361.790971,8.301,-9.277,-89.844,-192.871
1789912361.794847,15.137,-19.531,-87.891,-189.453
1789912361.798722,20.996,-31.250,-83.984,-174.316
1789912361.802916,12.207,-23.926,-85.449,-174.805
1789912361.806792,30.762,-12.695,-91.309,-184.082
1789912361.810668,27.344,-13.184,-87.402,-166.504
1789912361.814543,7.324,-14.648,-86.914,-154.785
1789912361.818419,16.602,-9.277,-91.797,-139.648
1789912361.822295,30.762,-0.488,-93.262,-149.902
1789912361.826171,41.016,4.395,-91.309,-159.180
1789912361.830047,50.293,10.254,-88.379,-131.836
1789912361.833923,42.969,16.113,-88.867,-121.094
1789912361.837799,33.691,16.113,-87.402,-117.188
1789912361.841675,39.062,15.137,-88.867,-128.906
1789912361.845551,47.852,17.090,-90.332,-134.766
1789912361.849705,44.922,13.184,-84.961,-144.043
1789912361.853581,46.387,12.207,-89.844,-146.484
1789912361.857457,51.758,16.602,-88.867,-101.562
1789912361.861333,48.340,20.020,-82.520,-99.609
1789912361.865210,55.664,24.414,-83.008,-111.816
1789912361.869086,58.594,26.367,-78.613,-111.328
1789912361.872962,47.852,29.297,-77.148,-113.770
1789912361.876837,48.340,32.227,-80.566,-114.746
1789912361.880713,38.574,30.273,-83.008,-114.746
1789912361.884589,41.504,32.715,-80.078,-99.121
1789912361.888466,50.781,31.738,-80.566,-95.703
1789912361.892342,45.410,32.715,-86.914,-133.789
1789912361.896467,43.457,27.344,-85.938,-149.414
1789912361.900343,17.578,19.043,-81.543,-129.395
1789912361.904220,20.996,25.879,-75.684,-118.652
1789912361.908096,43.945,40.039,-70.801,-118.164
1789912361.911972,40.039,39.551,-76.660,-127.441
1789912361.915848,35.156,30.762,-80.078,-122.070
1789912361.919724,27.832,25.879,-80.078,-112.793
1789912361.923600,23.438,23.438,-81.543,-115.723
1789912361.927476,20.996,24.902,-84.473,-120.117
1789912361.931352,27.344,21.484,-85.449,-124.023
1789912361.935229,26.367,12.695,-83.984,-144.531
1789912361.939105,1.953,9.766,-83.496,-148.438
1789912361.943462,10.742,20.508,-82.520,-122.070
1789912361.947338,35.645,29.785,-80.566,-114.746
1789912361.951214,23.926,28.809,-77.637,-119.629
1789912361.955091,-1.465,23.926,-72.754,-125.488
1789912361.958967,-5.371,23.438,-72.266,-118.652
1789912361.962843,0.000,21.973,-77.637,-106.934
1789912361.966720,11.230,22.949,-79.102,-118.652
1789912361.970596,11.230,30.273,-75.195,-126.953
1789912361.974473,3.906,29.297,-70.312,-118.164
1789912361.978349,5.371,21.973,-67.871,-108.398
1789912361.982225,5.859,23.926,-66.895,-101.562
1789912361.986101,1.465,27.344,-65.918,-117.676
1789912361.990400,3.906,30.762,-57.129,-119.629
1789912361.994276,9.766,33.691,-52.734,-99.609
1789912361.998153,2.441,26.855,-53.711,-104.492
1789912362.002029,-3.418,22.949,-47.852,-125.977
1789912362.005906,-0.488,23.438,-44.922,-117.188
1789912362.009782,-7.324,22.949,-45.898,-102.539
1789912362.013659,-2.930,21.973,-42.480,-101.562
1789912362.017535,3.418,19.531,-40.527,-125.488
1789912362.021412,2.441,18.066,-41.504,-114.258
1789912362.025288,4.883,22.949,-40.039,-87.402
1789912362.029165,-5.371,22.949,-40.527,-92.773
1789912362.033041,-14.160,22.461,-37.109,-93.750
1789912362.037309,0.000,26.367,-32.227,-98.145
1789912362.041186,8.301,26.855,-33.203,-99.121
1789912362.045063,2.930,24.902,-35.156,-94.238
1789912362.048939,3.418,20.508,-32.227,-88.379
1789912362.052816,3.418,20.508,-30.273,-81.543
1789912362.056693,-20.508,19.043,-31.738,-70.312
1789912362.060569,-30.273,15.625,-32.227,-70.801
1789912362.064446,-20.508,20.020,-32.715,-88.379
1789912362.068323,-16.113,21.484,-27.344,-75.684
1789912362.072199,-15.137,18.555,-27.344,-84.961
1789912362.076076,-17.578,16.113,-29.297,-111.328
1789912362.079953,-27.344,19.531,-27.832,-90.820
1789912362.084207,0.000,20.508,-30.273,-79.102
1789912362.088084,0.000,18.066,-32.715,-88.379
1789912362.091960,0.000,19.043,-27.832,-75.684
1789912362.095837,0.000,19.531,-21.484,-65.430
1789912362.099714,0.000,15.137,-21.973,-90.332
1789912362.103591,0.000,8.789,-24.414,-97.656
1789912362.107468,0.000,9.277,-20.996,-82.031
1789912362.111345,0.000,12.207,-20.508,-77.148
1789912362.115221,0.000,16.602,-23.438,-83.008
1789912362.119098,0.000,19.531,-23.438,-82.031
1789912362.122975,0.000,19.531,-23.926,-65.430
1789912362.126852,0.000,14.648,-18.555,-60.547
1789912362.131056,-16.602,16.113,-7.324,-61.523
1789912362.134933,-10.742,21.484,-7.324,-53.711
1789912362.138809,-20.020,18.066,-12.695,-62.988
1789912362.142686,-26.367,10.742,-16.602,-73.242
1789912362.146564,-26.855,11.719,-12.695,-81.055
1789912362.150440,-21.484,13.672,-6.348,-83.008
1789912362.154317,-26.855,13.184,-14.160,-82.031
1789912362.158195,-36.621,11.719,-17.578,-64.453
1789912362.162071,-37.598,9.766,-10.254,-45.898
1789912362.165948,-23.438,11.230,-11.230,-69.336
1789912362.169825,-30.273,12.695,-15.137,-73.730
1789912362.173702,-46.387,8.789,-14.160,-67.871
1789912362.177876,-43.457,8.301,-14.648,-66.406
1789912362.181753,-43.457,11.719,-12.207,-55.664
1789912362.185630,-35.156,14.648,-8.301,-63.965
1789912362.189507,-30.762,11.719,-11.230,-66.406
1789912362.193384,-30.273,3.906,-15.625,-69.336
1789912362.197262,-32.227,1.953,-20.996,-87.891
1789912362.201138,-35.645,0.977,-22.949,-82.031
1789912362.205016,-37.109,5.371,-14.160,-57.129
1789912362.208893,-34.668,16.602,-3.906,-57.617
1789912362.212770,-29.785,18.555,5.859,-68.359
1789912362.216647,-28.809,15.625,7.324,-61.523
1789912362.220524,-22.949,13.672,2.930,-52.734
1789912362.224664,-34.668,11.719,6.836,-59.570
1789912362.228541,-45.410,8.789,7.812,-58.594
1789912362.232418,-51.758,5.371,0.000,-63.965
1789912362.236295,-55.176,5.859,-2.930,-77.148
1789912362.240173,-39.551,6.348,0.977,-65.918
1789912362.244050,-35.645,3.418,0.488,-55.664
1789912362.247927,-45.898,1.465,3.418,-60.059
1789912362.251804,-52.734,3.418,7.812,-64.941
1789912362.255682,-53.711,4.883,6.348,-78.125
1789912362.259559,-56.152,3.418,10.742,-72.754
1789912362.263436,-56.641,3.418,10.742,-49.316
1789912362.267313,-53.223,4.395,5.859,-58.105
1789912362.271435,-55.664,2.930,6.836,-64.453
1789912362.275312,-53.711,-1.953,5.859,-60.059
1789912362.279190,-50.781,1.953,5.371,-58.594
1789912362.283067,-53.711,5.859,7.812,-54.688
1789912362.286944,-58.594,8.301,13.672,-44.922
1789912362.290822,-47.852,13.184,16.113,-47.363
1789912362.294699,-35.156,10.254,15.625,-49.805
1789912362.298576,-44.922,4.395,13.184,-43.945
1789912362.302454,-48.828,3.418,11.230,-47.363
1789912362.306331,-50.293,-1.465,14.160,-48.828
1789912362.310208,-46.875,-0.488,15.137,-43.457
1789912362.314086,-43.945,3.906,18.555,-41.504
1789912362.318414,0.000,4.395,19.043,-47.363
1789912362.322291,0.000,6.836,21.973,-28.320
1789912362.326169,0.000,13.184,30.273,-20.996
1789912362.330046,0.000,13.672,28.320,-30.762
1789912362.333924,0.000,16.113,25.879,-23.438
1789912362.337801,0.000,27.832,27.832,-6.348
1789912362.341679,0.000,34.180,32.715,-3.906
1789912362.345556,0.000,37.109,36.621,-8.301
1789912362.349434,0.000,41.992,38.086,0.000
1789912362.353312,0.000,42.969,39.551,-2.930
1789912362.357189,0.000,49.316,41.504,3.906
1789912362.361067,0.000,51.270,38.086,8.301
1789912362.365391,16.602,52.246,36.621,8.789
1789912362.369269,31.250,65.430,38.574,28.809
1789912362.373146,36.133,76.660,41.016,45.410
1789912362.377024,46.387,80.078,41.504,49.316
1789912362.380902,40.039,72.266,36.621,43.945
1789912362.384779,35.156,69.824,38.574,38.086
1789912362.388657,31.738,74.707,43.945,40.527
1789912362.392535,25.391,72.754,42.969,43.945
1789912362.396413,43.945,70.801,41.992,35.645
1789912362.400290,47.363,72.754,39.062,25.391
1789912362.404168,34.668,73.242,38.574,27.832
1789912362.408046,29.785,73.730,38.574,42.969
1789912362.412294,0.000,76.172,36.133,40.527
1789912362.416172,0.000,78.125,40.527,31.250
1789912362.420050,0.000,77.148,38.086,49.805
1789912362.423928,0.000,69.336,35.645,52.734
1789912362.427806,0.000,66.406,36.621,39.551
1789912362.431684,0.000,66.406,36.133,48.340
1789912362.435561,0.000,62.500,37.598,56.641
1789912362.439439,0.000,61.523,35.156,57.617
1789912362.443317,0.000,61.035,31.738,53.223
1789912362.447195,0.000,55.664,31.250,50.781
1789912362.451073,0.000,57.129,33.203,41.016
1789912362.454951,0.000,55.664,32.227,10.742
1789912362.459170,6.836,51.758,29.785,2.930
1789912362.463048,8.789,53.711,30.762,18.066
1789912362.466926,1.465,48.340,24.902,-0.977
1789912362.470803,-5.859,40.039,17.090,-1.953
1789912362.474682,-6.836,39.551,16.113,25.391
1789912362.478559,-13.184,33.203,11.230,26.855
1789912362.482438,-11.719,29.297,8.789,26.367
1789912362.486315,-11.719,36.133,10.254,25.391
1789912362.490194,-22.949,27.832,8.301,20.996
1789912362.494071,-26.855,25.879,1.465,5.859
1789912362.497950,-27.832,26.367,1.465,-4.883
1789912362.501827,-37.109,18.555,-2.441,-3.418
1789912362.506020,-38.086,20.020,-12.695,-3.906
1789912362.509898,-43.457,14.648,-15.137,-23.438
1789912362.513776,-43.945,5.859,-14.648,-28.809
1789912362.517654,-41.016,5.859,-12.695,-20.020
1789912362.521532,-43.945,-3.906,-12.207,-23.926
1789912362.525410,-52.246,-13.184,-14.648,-16.113
1789912362.529289,-67.871,-12.207,-17.090,-13.672
1789912362.533167,-77.148,-11.719,-16.602,-16.602
1789912362.537045,-61.523,-11.719,-15.137,-19.043
1789912362.540923,-55.664,-10.254,-11.230,-23.926
1789912362.544801,-66.406,-8.301,-9.277,-23.926
1789912362.548679,-66.406,-8.301,-11.230,-25.879
1789912362.552845,-57.617,-10.742,-11.230,-22.461
1789912362.556724,-55.664,-12.695,-11.719,-38.086
1789912362.560602,-59.570,-14.160,-8.301,-44.922
1789912362.564480,-60.547,-17.578,-5.859,-33.691
1789912362.568358,-61.523,-15.625,-12.207,-30.273
1789912362.572237,-66.406,-13.184,-7.812,-34.668
1789912362.576115,-70.801,-12.207,-2.930,-29.297
1789912362.579993,-59.570,-8.301,-8.789,-19.531
1789912362.583871,-58.594,-7.324,-8.301,-18.555
1789912362.587750,-43.945,-2.930,-5.859,-5.859
1789912362.591628,-39.551,-2.930,-2.441,-7.812
1789912362.595506,-58.594,-6.348,-4.395,-14.160
1789912362.599640,-66.895,-7.812,-3.906,-19.531
1789912362.603518,-62.500,-12.207,-4.395,-30.762
1789912362.607397,-62.012,-8.789,-6.348,-36.133
1789912362.611275,-69.336,-10.254,-9.277,-31.250
1789912362.615153,-73.730,-19.531,-11.230,-40.527
1789912362.619032,-66.895,-15.137,-4.883,-31.250
1789912362.622910,-63.965,-14.648,-3.418,-11.719
1789912362.626788,-71.289,-15.625,-4.395,-12.207
1789912362.630667,-69.336,-13.672,-2.441,-23.926
1789912362.634545,-64.453,-11.230,1.465,-24.902
1789912362.638423,-64.941,-6.348,6.836,-15.137
1789912362.642302,-75.684,-8.789,8.789,-13.672
1789912362.646492,-76.172,-15.625,4.395,-14.160
1789912362.650370,-70.801,-13.672,3.418,-7.324
1789912362.654248,-70.312,-8.301,3.418,-12.695
1789912362.658127,-55.176,-10.742,2.441,-13.184
1789912362.662005,-53.711,-9.766,1.953,-6.836
1789912362.665884,-43.457,-2.930,-0.488,-6.836
1789912362.669762,-35.645,-1.465,3.418,-20.996
1789912362.673641,-40.527,-4.883,-6.348,-26.367
1789912362.677519,-32.715,-3.418,-9.766,-17.578
1789912362.681398,-35.156,0.000,1.465,-4.395
1789912362.685277,-37.598,-2.930,4.395,1.953
1789912362.689155,-32.715,-6.836,4.395,-4.395
1789912362.693448,-44.434,-5.859,-2.441,-19.531
1789912362.697327,-60.059,-6.836,-6.348,-34.180
1789912362.701205,-71.289,-12.207,-7.812,-34.180
1789912362.705084,-65.918,-12.207,-5.371,-23.926
1789912362.708963,-55.664,-12.695,-3.906,-19.043
1789912362.712842,-61.035,-15.625,-4.883,-18.066
1789912362.716720,-62.988,-14.160,1.953,-34.180
1789912362.720599,-62.500,-11.719,2.441,-32.715
1789912362.724477,-60.547,-10.742,5.859,-4.395
1789912362.728356,-51.270,-8.789,15.625,11.719
1789912362.732235,-42.969,-15.137,9.766,7.324
1789912362.736113,-48.340,-20.020,-3.418,-12.695
1789912362.740401,0.000,-22.461,-7.324,-27.344
1789912362.744279,0.000,-19.043,-10.254,-27.832
1789912362.748158,0.000,-19.531,-9.766,-25.391
