timestamp,TP9,AF7,AF8,TP10
1789912766.161416,0.000,0.000,0.000,0.000
1789912766.165275,0.000,0.000,0.000,0.000
1789912766.169135,0.000,-1.465,-1.465,-2.441
1789912766.172994,0.000,2.441,1.465,4.883
1789912766.176854,0.000,-13.672,-11.719,-30.762
1789912766.180714,0.000,-41.992,-40.527,-76.172
1789912766.184573,0.000,-47.363,-49.805,-80.566
1789912766.188433,0.000,-41.504,-45.898,-88.379
1789912766.192292,0.000,-39.062,-42.969,-104.492
1789912766.196152,0.000,-36.621,-41.016,-102.539
1789912766.200012,0.000,-27.832,-37.109,-72.266
1789912766.203871,0.000,-37.598,-39.062,-63.965
1789912766.206988,-41.992,-42.969,-44.434,-65.430
1789912766.210785,-42.480,-39.062,-48.340,-74.707
1789912766.214583,-26.367,-43.457,-52.246,-77.148
1789912766.218381,-33.203,-40.039,-52.246,-76.660
1789912766.222178,-43.945,-36.621,-52.246,-93.262
1789912766.225976,-38.086,-41.016,-52.246,-104.980
1789912766.229774,-27.832,-40.527,-52.734,-94.727
1789912766.233571,-34.180,-36.133,-53.711,-90.332
1789912766.237369,-64.941,-37.598,-53.711,-101.562
1789912766.241167,-69.336,-37.598,-55.664,-111.328
1789912766.244964,-53.223,-34.180,-53.711,-100.586
1789912766.248762,-52.734,-34.180,-54.688,-96.680
1789912766.249830,-61.035,-34.668,-49.805,-120.117
1789912766.253515,-69.824,-38.086,-47.363,-126.465
1789912766.257198,-55.664,-40.527,-51.758,-108.887
1789912766.260882,-34.668,-36.133,-54.199,-92.285
1789912766.264566,-48.828,-31.738,-52.734,-87.891
1789912766.268250,-57.129,-33.691,-52.246,-93.750
1789912766.271934,-56.152,-33.203,-51.270,-94.238
1789912766.275618,-63.965,-34.180,-50.781,-100.586
1789912766.279302,-62.500,-42.969,-50.781,-110.840
1789912766.282986,-64.941,-51.758,-55.664,-117.676
1789912766.286670,-71.777,-52.246,-59.570,-123.535
1789912766.290354,-68.848,-49.805,-56.152,-121.094
1789912766.289889,-70.801,-50.293,-60.059,-125.977
1789912766.293458,-61.523,-45.410,-58.105,-121.582
1789912766.297026,-59.570,-46.387,-55.664,-110.352
1789912766.300595,-58.594,-53.223,-60.547,-111.328
1789912766.304164,-50.293,-49.805,-59.082,-113.770
1789912766.307733,-57.617,-52.734,-59.570,-121.094
1789912766.311301,-53.223,-53.711,-58.594,-110.352
1789912766.314870,-52.734,-49.316,-61.035,-94.727
1789912766.318439,-44.922,-42.480,-58.105,-105.957
1789912766.322007,-43.457,-44.434,-52.246,-110.352
1789912766.325576,-59.082,-49.316,-50.781,-110.352
1789912766.329145,-53.223,-42.969,-46.387,-108.887
1789912766.328840,0.000,-42.969,-41.992,-102.539
1789912766.332328,0.000,-45.898,-43.945,-117.188
1789912766.335816,0.000,-42.480,-46.387,-136.719
1789912766.339304,0.000,-39.062,-44.434,-121.582
1789912766.342792,0.000,-34.668,-49.805,-114.258
1789912766.346280,0.000,-34.180,-48.828,-116.211
1789912766.349768,0.000,-38.574,-38.086,-100.586
1789912766.353256,0.000,-42.480,-38.086,-99.609
1789912766.356744,0.000,-41.992,-44.434,-112.305
1789912766.360232,0.000,-38.086,-39.551,-109.375
1789912766.363720,0.000,-34.180,-30.273,-102.539
1789912766.367208,0.000,-25.879,-22.461,-101.562
1789912766.367647,-24.902,-25.391,-20.508,-89.355
1789912766.371084,-19.531,-26.367,-19.531,-76.660
1789912766.374521,-20.020,-21.973,-16.602,-72.754
1789912766.377959,-28.320,-25.391,-19.043,-80.566
1789912766.381396,-20.508,-25.391,-17.578,-83.008
1789912766.384833,6.836,-16.113,-12.207,-67.383
1789912766.388270,-5.371,-10.254,-12.207,-71.289
1789912766.391707,-19.043,-16.602,-16.113,-90.820
1789912766.395145,-0.488,-13.672,-15.625,-88.867
1789912766.398582,12.207,-5.371,-10.254,-63.965
1789912766.402019,5.859,-8.301,-7.812,-56.152
1789912766.405456,-4.395,-5.371,-6.836,-70.312
1789912766.410884,-1.465,0.977,-5.859,-69.824
1789912766.414349,1.465,-1.465,-7.812,-59.082
1789912766.417814,0.000,-8.301,-7.324,-56.641
1789912766.421278,-13.184,-12.695,-8.789,-70.312
1789912766.424743,-8.789,-10.742,-7.812,-71.777
1789912766.428208,7.324,-5.859,-3.906,-52.734
1789912766.431673,8.789,-8.301,-5.371,-53.711
1789912766.435138,-2.930,-5.371,-3.418,-62.988
1789912766.438602,-21.484,-8.789,-7.812,-63.477
1789912766.442067,-13.672,-13.672,-14.648,-52.246
1789912766.445532,3.418,-11.719,-14.160,-62.012
1789912766.448997,0.000,-18.555,-16.113,-81.543
1789912766.452424,-4.395,-21.484,-16.113,-78.613
1789912766.455888,-14.160,-15.137,-14.648,-73.730
1789912766.459352,-23.438,-20.996,-22.949,-83.496
1789912766.462817,-20.508,-27.832,-26.855,-85.938
1789912766.466281,-24.902,-20.996,-23.438,-78.125
1789912766.469745,-24.414,-16.113,-25.879,-84.473
1789912766.473210,-17.090,-15.137,-26.367,-83.496
1789912766.476674,-15.137,-17.578,-25.879,-71.289
1789912766.480139,-12.695,-20.508,-32.227,-82.520
1789912766.483603,-19.531,-23.926,-39.551,-104.004
1789912766.487067,-65.430,-26.855,-38.574,-98.633
1789912766.490532,-117.188,-26.367,-41.992,-90.820
1789912766.496516,-140.625,-25.879,-42.480,-91.797
1789912766.500007,-140.625,-26.855,-40.039,-94.238
1789912766.503498,-129.395,-26.855,-48.828,-104.004
1789912766.506988,-137.695,-27.832,-49.316,-102.051
1789912766.510479,-155.762,-30.762,-47.852,-97.168
1789912766.513969,-161.133,-31.738,-50.781,-112.793
1789912766.517460,-157.227,-37.598,-49.316,-121.094
1789912766.520951,-143.066,-40.527,-51.758,-113.281
1789912766.524441,-145.996,-39.062,-49.805,-107.910
1789912766.527932,-153.809,-35.156,-48.828,-113.281
1789912766.531423,-134.277,-30.273,-51.270,-120.605
1789912766.534913,-118.164,-31.250,-52.734,-118.652
1789912766.539016,-118.164,-35.156,-59.570,-111.816
1789912766.542512,-127.441,-32.715,-61.523,-111.328
1789912766.546008,-132.324,-29.785,-53.223,-118.164
1789912766.549505,-124.023,-37.109,-51.270,-112.305
1789912766.553001,-113.770,-34.180,-51.758,-117.676
1789912766.556497,-113.770,-32.227,-50.781,-134.277
1789912766.559994,-112.305,-40.039,-52.246,-129.883
1789912766.563490,-104.492,-38.574,-50.781,-123.535
1789912766.566986,-115.723,-35.645,-52.734,-119.629
1789912766.570482,-115.234,-33.203,-50.781,-111.328
1789912766.573979,-117.676,-33.203,-45.898,-109.375
1789912766.577475,-148.438,-34.668,-50.781,-107.910
1789912766.581993,0.000,-26.855,-50.293,-104.004
1789912766.585498,0.000,-22.461,-50.293,-104.492
1789912766.589002,0.000,-31.738,-49.316,-115.723
1789912766.592507,0.000,-36.133,-46.875,-123.047
1789912766.596012,0.000,-33.691,-51.758,-115.723
1789912766.599517,0.000,-33.203,-52.734,-83.984
1789912766.603022,0.000,-36.133,-50.293,-82.031
1789912766.606526,0.000,-35.156,-48.828,-118.652
1789912766.610031,0.000,-28.320,-45.898,-119.141
1789912766.613536,0.000,-24.902,-39.551,-107.910
1789912766.617041,0.000,-26.367,-39.062,-102.539
1789912766.620546,0.000,-28.320,-43.945,-105.469
1789912766.626844,-288.086,-22.461,-41.016,-107.422
1789912766.630370,-282.715,-24.902,-40.527,-107.422
1789912766.633896,-267.090,-33.203,-53.711,-105.469
1789912766.637422,-279.785,-25.879,-58.105,-105.469
1789912766.640948,-285.645,-18.555,-53.223,-114.746
1789912766.644474,-275.391,-33.203,-56.641,-114.746
1789912766.648000,-270.996,-35.645,-57.129,-94.238
1789912766.651526,-268.555,-29.297,-47.363,-82.520
1789912766.655052,-275.879,-28.809,-46.387,-94.727
1789912766.658578,-271.973,-29.785,-61.523,-113.770
1789912766.662104,-260.254,-28.809,-63.965,-104.492
1789912766.665630,-261.719,-27.344,-61.523,-97.656
1789912766.670136,0.000,-29.785,-62.012,-105.957
1789912766.673669,0.000,-34.668,-64.941,-90.332
1789912766.677202,0.000,-33.203,-78.613,-87.891
1789912766.680734,0.000,-35.156,-86.426,-103.516
1789912766.684267,0.000,-37.109,-86.426,-108.887
1789912766.687800,0.000,-37.109,-87.891,-103.516
1789912766.691333,0.000,-36.621,-87.402,-108.887
1789912766.694866,0.000,-27.832,-82.031,-101.074
1789912766.698398,0.000,-29.297,-83.984,-99.609
1789912766.701931,0.000,-31.250,-82.520,-96.191
1789912766.705464,0.000,-30.762,-82.520,-78.613
1789912766.708997,0.000,-39.551,-93.262,-103.027
1789912766.715346,-316.895,-38.086,-90.820,-122.559
1789912766.718897,-383.301,-39.551,-86.914,-110.352
1789912766.722448,-386.719,-38.574,-90.332,-104.492
1789912766.725999,-368.164,-35.156,-94.238,-104.980
1789912766.729549,-363.281,-38.574,-95.703,-102.051
1789912766.733100,-369.629,-38.574,-93.262,-95.215
1789912766.736651,-352.051,-41.992,-90.332,-93.750
1789912766.740202,-323.242,-37.598,-91.309,-87.891
1789912766.743753,-312.988,-35.156,-97.168,-86.426
1789912766.747303,-313.477,-36.133,-98.145,-93.750
1789912766.750854,-310.059,-35.156,-99.609,-97.656
1789912766.754405,-299.805,-38.086,-102.051,-99.121
1789912766.760654,-290.039,-39.062,-101.074,-92.285
1789912766.764221,-296.875,-41.504,-101.074,-93.750
1789912766.767788,-290.039,-42.969,-101.562,-89.844
1789912766.771355,-264.160,-43.457,-103.516,-80.078
1789912766.774921,-253.906,-38.574,-101.074,-83.008
1789912766.778488,-253.906,-35.645,-95.215,-86.914
1789912766.782055,-239.746,-35.156,-94.727,-80.078
1789912766.785622,-230.957,-35.645,-100.098,-84.473
1789912766.789189,-224.121,-37.598,-96.191,-82.520
1789912766.792756,-210.449,-34.668,-87.402,-71.777
1789912766.796323,-210.938,-36.133,-95.703,-87.891
1789912766.799890,-215.332,-38.086,-97.656,-86.914
1789912766.805890,-208.984,-42.969,-95.215,-72.754
1789912766.809470,-203.125,-47.363,-95.215,-78.125
1789912766.813050,-207.031,-47.852,-89.355,-88.867
1789912766.816631,-200.195,-46.875,-88.867,-74.219
1789912766.820211,-182.129,-48.340,-94.238,-68.359
1789912766.823792,-167.969,-51.270,-95.703,-76.172
1789912766.827372,-166.504,-45.898,-93.262,-78.125
1789912766.830952,-177.246,-46.875,-92.285,-75.684
1789912766.834533,-174.316,-56.152,-92.285,-59.082
1789912766.838113,-174.805,-55.664,-90.820,-48.340
1789912766.841694,-172.363,-52.734,-87.891,-67.871
1789912766.845274,-161.133,-52.734,-85.449,-83.984
1789912766.851169,-152.832,-50.293,-82.520,-78.613
1789912766.854762,-144.043,-47.852,-84.473,-75.195
1789912766.858354,-144.043,-42.969,-84.473,-69.824
1789912766.861947,-142.090,-41.504,-83.984,-73.730
1789912766.865539,-140.625,-44.434,-82.031,-71.289
1789912766.869132,-122.070,-39.551,-79.102,-62.988
1789912766.872724,-112.305,-35.156,-75.195,-57.129
1789912766.876317,-130.859,-40.039,-72.754,-52.734
1789912766.879909,-124.512,-40.039,-70.801,-46.875
1789912766.883502,-106.445,-37.109,-69.824,-41.992
1789912766.887094,-104.004,-40.527,-69.336,-46.875
1789912766.890687,-110.840,-35.156,-59.082,-47.363
1789912766.896455,-113.770,-31.738,-56.152,-41.504
1789912766.900058,-97.656,-27.344,-55.664,-45.898
1789912766.903661,-87.402,-26.855,-52.734,-40.527
1789912766.907264,-86.914,-28.320,-55.176,-32.227
1789912766.910867,-78.613,-23.438,-52.734,-35.156
1789912766.914470,-77.637,-22.949,-47.852,-19.531
1789912766.918073,-71.777,-19.531,-42.969,-4.883
1789912766.921676,-55.664,-19.043,-41.992,-9.766
1789912766.925280,-62.500,-15.625,-38.574,-3.906
1789912766.928883,-63.477,-5.371,-28.809,3.906
1789912766.932486,-36.621,0.977,-27.344,9.766
1789912766.936089,-26.855,1.953,-28.320,6.348
1789912766.943181,-48.828,5.859,-26.367,-13.184
1789912766.946801,-37.109,8.301,-21.484,-21.973
1789912766.950420,-19.531,7.812,-23.926,-9.277
1789912766.954039,-29.785,10.254,-31.250,-1.953
1789912766.957659,-34.668,14.160,-22.461,-3.906
1789912766.961278,-34.180,13.184,-21.973,1.465
1789912766.964897,-27.344,10.254,-25.391,2.441
1789912766.968516,-18.555,9.766,-20.020,10.254
1789912766.972136,-25.391,11.719,-26.367,15.625
1789912766.975755,-36.133,6.348,-31.250,7.812
1789912766.979374,-35.645,2.441,-27.832,0.488
1789912766.982994,-28.320,9.277,-31.250,-6.348
1789912766.988548,-32.227,12.207,0.000,-9.277
1789912766.992176,-51.270,9.277,0.000,-11.719
1789912766.995804,-38.574,2.930,0.000,-5.371
1789912766.999432,-30.273,-3.906,0.000,0.977
1789912767.003059,-38.086,-9.766,0.000,2.930
1789912767.006687,-53.223,-14.648,0.000,-7.812
1789912767.010315,-61.523,-13.672,0.000,-17.578
1789912767.013943,-50.781,-11.230,0.000,-14.160
1789912767.017570,-41.016,-9.277,0.000,-10.254
1789912767.021198,-40.039,-8.301,0.000,-9.277
1789912767.024826,-59.082,-9.277,0.000,-4.883
1789912767.028454,-64.453,-8.789,0.000,-3.418
1789912767.033826,-53.711,-10.254,-57.129,-10.254
1789912767.037461,-47.852,-10.254,-60.059,-21.973
1789912767.041096,-59.082,-14.160,-56.641,-32.715
1789912767.044731,-63.965,-18.555,-53.711,-22.949
1789912767.048366,-52.734,-17.090,-56.152,-27.344
1789912767.052001,-49.805,-15.137,-59.570,-36.621
1789912767.055636,-64.941,-17.090,-60.547,-21.484
1789912767.059271,-67.383,-18.066,-60.059,-24.902
1789912767.062906,-67.383,-17.578,-63.477,-35.156
1789912767.066541,-66.895,-27.832,-66.895,-30.762
1789912767.070176,-75.195,-34.180,-62.988,-42.480
1789912767.073811,-74.219,-29.297,-59.570,-47.363
1789912767.080404,-78.125,-29.297,-64.453,-42.969
1789912767.084051,-93.262,-37.109,-68.359,-36.621
1789912767.087698,-100.586,-39.062,-65.430,-44.434
1789912767.091345,-107.910,-40.527,-71.289,-64.453
1789912767.094991,-96.680,-40.039,-72.754,-72.266
1789912767.098638,-76.172,-36.621,-70.801,-59.570
1789912767.102285,-83.496,-35.645,-74.219,-55.176
1789912767.105932,-89.355,-35.156,-69.824,-65.918
1789912767.109579,-86.426,-37.109,-62.500,-55.176
1789912767.113225,-81.543,-38.574,-63.965,-34.668
1789912767.116872,-70.312,-34.180,-66.895,-31.738
1789912767.120519,-81.055,-33.691,-65.918,-44.922
1789912767.126967,-85.449,-35.156,-64.453,-53.711
1789912767.130624,-85.938,-33.691,-62.012,-55.176
1789912767.134282,-84.473,-37.109,-61.523,-46.875
1789912767.137939,-69.336,-36.133,-58.594,-48.828
1789912767.141596,-69.336,-33.203,-58.105,-60.059
1789912767.145254,-84.473,-36.133,-59.570,-58.105
1789912767.148911,-89.844,-37.598,-64.941,-54.199
1789912767.152569,-74.219,-32.227,-61.035,-52.246
1789912767.156226,-68.848,-26.367,-52.734,-46.875
1789912767.159883,-66.406,-24.902,-52.246,-35.156
1789912767.163541,-69.824,-25.879,-53.223,-32.715
1789912767.167198,-70.312,-27.344,-54.688,-38.086
1789912767.173398,-68.359,-26.855,-56.152,-47.363
1789912767.177065,-80.566,-28.320,-56.152,-55.176
1789912767.180731,-76.660,-38.574,-57.617,-57.129
1789912767.184398,-66.406,-41.016,-55.176,-42.969
1789912767.188064,-63.477,-35.645,-51.758,-37.598
1789912767.191731,-65.430,-32.715,-49.316,-42.480
1789912767.195398,-75.684,-33.691,-51.270,-37.109
1789912767.199064,-82.520,-42.480,-59.570,-43.945
1789912767.202731,-85.449,-46.387,-63.965,-44.434
1789912767.206397,-80.566,-40.527,-56.641,-37.109
1789912767.210064,-58.594,-36.621,-50.781,-44.434
1789912767.213731,-46.387,-37.109,-51.758,-31.250
1789912767.219695,-44.922,-30.762,-54.688,-23.438
1789912767.223370,-54.688,-33.203,-60.547,-42.480
1789912767.227045,-73.242,-41.992,-61.035,-39.551
1789912767.230719,-72.266,-33.203,-56.641,-36.621
1789912767.234394,-67.871,-33.203,-58.594,-43.457
1789912767.238068,-78.125,-41.504,-56.152,-38.574
1789912767.241743,-76.172,-25.391,-52.734,-30.762
1789912767.245417,-60.059,-34.668,-52.734,-24.414
1789912767.249092,-46.875,-57.617,-51.758,-16.113
1789912767.252767,-50.293,-45.410,-51.758,-25.391
1789912767.256441,-61.523,-37.109,-47.363,-34.668
1789912767.260116,-68.359,-42.480,-52.246,-40.039
1789912767.265989,-77.637,-44.922,-60.059,-43.457
1789912767.269671,-70.312,-41.016,-59.082,-37.109
1789912767.273353,-62.988,-42.969,-63.965,-36.621
1789912767.277035,-62.988,-41.504,-70.312,-36.621
1789912767.280717,-58.105,-25.879,-63.965,-28.320
1789912767.284399,-64.941,-32.715,-55.176,-25.391
1789912767.288081,-65.918,-28.809,-45.898,-26.367
1789912767.291763,-66.406,-27.344,-49.805,-21.973
1789912767.295444,-58.105,-38.086,-55.176,-12.695
1789912767.299126,-48.828,-33.203,-51.270,-14.160
1789912767.302808,-72.266,-42.480,-49.316,-29.297
1789912767.306490,-89.844,-45.410,-62.012,-35.156
1789912767.312114,-65.918,-36.133,-68.359,-29.785
1789912767.315803,-58.594,-31.250,-58.594,-28.809
1789912767.319491,-82.031,-33.203,-53.223,-34.668
1789912767.323179,-69.824,-9.277,-55.664,-34.668
1789912767.326867,-47.363,-1.953,-58.594,-31.738
1789912767.330555,-45.898,-25.879,-54.688,-29.785
1789912767.334243,-51.758,-29.785,-57.129,-37.109
1789912767.337931,-60.059,-23.926,-67.383,-32.227
1789912767.341619,-62.500,-19.043,-69.336,-24.414
1789912767.345308,-36.133,-0.488,-54.688,-16.113
1789912767.348996,-22.949,10.254,-46.875,10.742
1789912767.352684,-30.273,-4.395,-47.363,7.812
1789912767.358131,-29.297,-6.348,-44.434,-21.484
1789912767.361825,-27.344,-6.836,-51.270,-23.438
1789912767.365518,-29.785,-15.137,-62.012,-8.301
1789912767.369212,-22.949,-16.602,-55.664,-7.812
1789912767.372905,-20.508,-7.812,-51.270,-1.465
1789912767.376599,-14.160,-4.395,-51.758,16.602
1789912767.380292,-14.160,-8.789,-45.410,23.926
1789912767.383986,-43.457,-6.836,-43.457,21.484
1789912767.387680,-40.039,3.906,-42.969,16.113
1789912767.391373,-29.297,-0.488,-40.527,14.648
1789912767.395067,-34.180,-12.207,-45.898,9.277
1789912767.398760,-24.902,-4.883,-44.922,23.438
1789912767.404115,-22.461,-0.488,-39.062,30.762
1789912767.407814,-31.250,-7.324,-51.758,13.184
1789912767.411512,-22.949,-13.184,-54.199,12.695
1789912767.415211,-20.508,-14.160,-49.316,11.230
1789912767.418909,-34.180,0.000,-60.547,-0.977
1789912767.422608,-39.551,-12.207,-76.172,-3.906
1789912767.426306,-43.457,-26.855,-80.078,3.906
1789912767.430005,-40.527,-16.602,-83.984,2.441
1789912767.433703,-34.180,-17.578,-83.496,-21.973
1789912767.437402,-47.363,-25.391,-78.613,-36.621
1789912767.441100,-51.758,-28.809,-79.590,-26.855
1789912767.444799,-33.691,-26.367,-83.984,-23.438
1789912767.450086,-35.645,-23.926,-81.055,-20.508
1789912767.453789,-52.734,-20.508,-81.055,-24.902
1789912767.457492,-61.035,-25.391,-85.449,-25.391
1789912767.461195,-59.082,-36.621,-85.449,-17.090
1789912767.464898,-50.781,-36.621,-87.891,-28.809
1789912767.468601,-63.477,-36.133,-85.938,-43.457
1789912767.472305,-58.105,-38.574,-80.078,-40.527
1789912767.476007,-53.711,-46.875,-83.984,-23.926
1789912767.479711,-62.500,-47.852,-84.961,-28.809
1789912767.483414,-65.430,-46.875,-83.008,-30.762
1789912767.487117,-62.988,-52.246,-84.473,-20.020
1789912767.490820,-45.410,-52.246,-84.961,-25.879
1789912767.497032,-45.898,-53.223,-89.355,-23.926
1789912767.500742,-64.941,-53.223,-88.867,-29.785
1789912767.504452,-70.801,-34.180,-82.520,-35.156
1789912767.508162,-72.754,-41.016,-83.984,-37.109
1789912767.511873,-58.594,-59.082,-83.984,-37.598
1789912767.515583,-51.758,-50.293,-78.613,-35.645
1789912767.519293,-66.406,-45.898,-79.102,-41.992
1789912767.523003,-58.594,-43.457,-77.148,-25.879
1789912767.526713,-41.016,-42.969,-70.312,-18.066
1789912767.530423,-33.691,-39.551,-66.895,-31.250
1789912767.534133,-33.203,-36.621,-69.824,-31.250
1789912767.537843,-34.668,-31.738,-64.941,-21.484
1789912767.544902,-26.367,-23.926,-54.688,3.906
1789912767.548621,-11.230,-23.926,-50.781,12.695
1789912767.552340,-27.344,-20.508,-48.340,10.742
1789912767.556059,-36.621,-12.695,-40.039,16.602
1789912767.559778,-21.484,-12.207,-36.133,10.254
1789912767.563497,-13.184,-9.766,-34.180,3.906
1789912767.567216,-9.277,-10.254,-28.320,0.000
1789912767.570935,-29.297,-10.254,-28.320,-10.742
1789912767.574654,-18.066,-10.254,-27.832,10.742
1789912767.578373,16.602,-4.883,-28.320,32.227
1789912767.582092,10.254,5.859,-26.367,25.879
1789912767.585811,-4.395,6.348,-25.391,26.855
1789912767.592635,2.441,3.906,-25.391,22.949
1789912767.596362,7.324,11.230,-24.414,26.367
1789912767.600089,-2.441,12.207,-26.367,29.297
1789912767.603816,-12.207,5.859,-30.273,22.949
1789912767.607543,-2.930,-0.488,-36.133,6.348
1789912767.611270,0.488,-6.348,-41.992,2.930
1789912767.614998,3.906,-9.766,-48.828,14.160
1789912767.618725,-13.184,-11.230,-51.270,8.301
1789912767.622452,-33.691,-15.625,-56.641,4.883
1789912767.626179,-21.484,-12.695,-61.035,6.348
1789912767.629906,-7.324,-7.324,-62.988,20.020
1789912767.633633,-11.230,-17.578,-68.848,28.809
1789912767.639194,-21.973,-25.391,-70.801,24.414
1789912767.642926,-43.457,-25.391,-71.777,17.578
1789912767.646658,-52.246,-26.367,-75.684,6.348
1789912767.650390,-53.223,-29.297,-69.824,-6.836
1789912767.654121,-51.758,-29.297,-66.895,-15.625
1789912767.657853,-48.828,-24.902,-73.242,-1.465
1789912767.661585,-60.059,-28.320,-74.219,6.836
1789912767.665317,-62.988,-31.738,-77.637,11.230
1789912767.669049,-80.566,-33.203,-89.355,6.348
1789912767.672780,-86.426,-38.574,-92.285,-6.348
1789912767.676512,-76.660,-39.551,-89.844,-6.348
1789912767.680244,-71.289,-39.062,-91.797,12.207
1789912767.685678,-77.637,-44.434,-92.773,6.836
1789912767.689413,-93.750,-52.246,-95.215,-0.488
1789912767.693149,-97.656,-52.246,-95.215,6.348
1789912767.696885,-95.215,-41.016,-91.797,7.324
1789912767.700621,-93.750,-37.109,-88.867,1.953
1789912767.704357,-92.773,-45.410,-87.891,-17.090
1789912767.708093,-90.820,-45.410,-94.238,-23.438
1789912767.711829,-85.938,-44.434,-97.168,-11.719
1789912767.715565,-90.332,-47.852,-93.750,-20.020
1789912767.719301,-96.191,-48.340,-92.285,-41.016
1789912767.723037,-80.078,-50.293,-89.355,-42.480
1789912767.726773,-94.238,-54.199,-86.426,-34.180
1789912767.732018,-111.328,-56.152,-88.379,-36.621
1789912767.735758,-105.469,-58.105,-92.285,-52.246
1789912767.739497,-114.258,-62.012,-92.773,-49.805
1789912767.743237,-109.863,-70.312,-92.773,-42.969
1789912767.746976,-99.121,-71.777,-93.750,-51.270
1789912767.750715,-97.168,-59.570,-86.426,-63.477
1789912767.754455,-92.285,-53.223,-84.473,-67.871
1789912767.758195,-78.125,-51.270,-93.262,-61.035
1789912767.761934,-76.172,-47.363,-94.238,-57.129
1789912767.765674,-81.055,-58.594,-86.426,-59.570
1789912767.769413,-89.844,-59.082,-79.102,-65.918
1789912767.773153,-84.961,-50.293,-83.984,-60.547
1789912767.778363,-81.055,-46.387,-85.938,-61.035
1789912767.782106,-89.844,-41.016,-76.172,-67.383
1789912767.785849,-86.426,-33.203,-71.777,-61.035
1789912767.789592,-80.078,-28.809,-76.660,-62.500
1789912767.793334,-90.820,-35.156,-81.543,-74.707
1789912767.797077,-92.285,-46.387,-81.543,-68.359
1789912767.800820,-75.195,-41.016,-83.984,-53.711
1789912767.804563,-70.312,-34.668,-69.824,-34.668
1789912767.808306,-79.102,-29.785,-70.801,-43.945
1789912767.812049,-84.473,-22.949,-86.426,-73.242
1789912767.815792,-81.055,-39.551,-79.590,-64.453
1789912767.819535,-82.520,-40.527,-81.055,-65.918
1789912767.825514,0.000,-33.691,-89.355,-83.008
1789912767.829262,0.000,-34.180,-81.055,-86.914
1789912767.833010,0.000,-36.621,-77.637,-81.055
1789912767.836758,0.000,-25.879,-83.496,-75.684
1789912767.840506,0.000,-26.367,-85.938,-70.312
1789912767.844254,0.000,-40.527,-86.914,-61.035
1789912767.848002,0.000,-37.109,-84.961,-65.918
1789912767.851750,0.000,-24.902,-76.660,-72.754
1789912767.855498,0.000,-20.996,-69.336,-76.172
1789912767.859246,0.000,-19.043,-63.477,-65.430
1789912767.862994,0.000,-12.207,-62.988,-52.734
1789912767.866742,0.000,-15.137,-59.570,-63.477
1789912767.872488,-49.805,-20.996,-63.477,-68.359
1789912767.876240,-42.969,-19.043,-69.336,-62.988
1789912767.879993,-28.809,-14.648,-58.105,-55.176
1789912767.883745,-44.434,-9.766,-54.688,-56.152
1789912767.887498,-77.637,-8.789,-59.082,-75.195
1789912767.891250,-65.430,-21.973,-61.035,-84.473
1789912767.895002,-65.430,-31.250,-67.871,-79.102
1789912767.898755,-82.031,-34.180,-71.289,-75.684
1789912767.902507,-74.707,-37.598,-73.730,-83.984
1789912767.906259,-56.152,-33.691,-69.336,-81.055
1789912767.910012,-54.199,-29.297,-71.289,-80.566
1789912767.913764,-57.617,-32.227,-74.219,-84.473
1789912767.919473,-65.918,-33.203,-72.754,-92.773
1789912767.923230,-67.871,-28.320,-72.266,-97.656
1789912767.926986,-57.129,-23.438,-70.312,-86.914
1789912767.930743,-51.270,-29.785,-72.266,-82.520
1789912767.934499,-66.895,-33.203,-74.707,-94.238
1789912767.938256,-82.031,-32.227,-76.660,-111.816
1789912767.942012,-65.430,-31.250,-73.242,-105.469
1789912767.945769,-47.852,-27.832,-71.777,-94.238
1789912767.949525,-57.129,-29.297,-71.289,-80.566
1789912767.953282,-59.082,-33.203,-69.336,-88.379
1789912767.957038,-57.129,-27.344,-72.266,-100.098
1789912767.960795,-66.406,-28.809,-76.172,-80.566
1789912767.966263,-74.219,-32.227,-77.148,-81.055
1789912767.970023,-74.219,-21.973,-77.148,-93.750
1789912767.973783,-79.102,-26.855,-81.543,-95.215
1789912767.977543,-68.848,-27.344,-82.520,-98.145
1789912767.981303,-67.383,-23.438,-79.102,-99.609
1789912767.985063,-70.801,-26.855,-74.219,-100.586
1789912767.988823,-70.312,-27.344,-66.406,-96.680
1789912767.992583,-75.195,-26.855,-71.289,-88.379
1789912767.996343,-68.848,-26.367,-69.336,-72.754
1789912768.000103,-61.035,-19.531,-62.988,-86.914
1789912768.003864,-52.734,-26.855,-71.777,-93.262
1789912768.007624,-55.664,-38.086,-77.148,-69.824
1789912768.012945,-57.617,-35.156,-79.102,-66.406
1789912768.016708,-75.195,-31.250,-79.102,-89.844
1789912768.020472,-77.148,-32.715,-76.172,-97.656
1789912768.024235,-58.105,-27.344,-72.266,-85.938
1789912768.027998,-57.129,-33.203,-73.730,-86.426
1789912768.031761,-62.012,-43.457,-81.055,-83.008
1789912768.035525,-55.664,-34.180,-80.566,-80.566
1789912768.039288,-35.645,-26.367,-75.684,-77.637
1789912768.043051,-28.320,-18.555,-71.289,-70.312
1789912768.046814,-32.227,-31.738,-62.012,-72.266
1789912768.050578,-51.758,-41.504,-62.012,-88.379
1789912768.054341,-60.059,-35.645,-64.453,-87.402
1789912768.060370,-54.199,-38.086,-66.406,-76.660
1789912768.064138,-54.688,-33.203,-71.289,-72.266
1789912768.067906,-63.965,-27.832,-71.777,-68.848
1789912768.071674,-68.359,-31.250,-70.801,-70.801
1789912768.075441,-62.500,-35.156,-66.406,-74.219
1789912768.079209,-52.246,-31.250,-61.523,-77.637
1789912768.082977,-40.527,-24.414,-55.664,-74.219
1789912768.086745,-41.992,-18.066,-50.293,-66.895
1789912768.090513,-43.945,-17.578,-52.734,-68.359
1789912768.094280,-20.508,-21.973,-56.641,-72.266
1789912768.098048,-14.160,-16.602,-60.059,-59.570
1789912768.101816,-35.156,-19.043,-57.129,-69.336
1789912768.106889,-47.363,-27.344,-55.176,-85.449
1789912768.110659,-53.223,-28.809,-56.152,-76.660
1789912768.114429,-51.270,-29.297,-60.547,-72.266
1789912768.118200,-52.246,-29.785,-62.988,-83.496
1789912768.121970,-51.758,-33.203,-62.500,-86.914
1789912768.125740,-47.852,-33.691,-59.082,-78.125
1789912768.129511,-38.574,-36.621,-58.594,-61.035
1789912768.133281,-41.992,-35.156,-62.988,-64.941
1789912768.137051,-56.152,-33.203,-60.059,-71.289
1789912768.140821,-49.805,-32.715,-58.594,-64.941
1789912768.144592,-36.133,-34.668,-68.359,-67.383
1789912768.148362,-46.875,-39.062,-71.777,-79.590
1789912768.153354,-55.664,-37.598,-66.406,-86.426
1789912768.157126,-45.898,-34.180,-68.848,-85.449
1789912768.160899,-46.875,-40.039,-74.707,-81.543
1789912768.164672,-48.340,-41.504,-74.707,-88.379
1789912768.168444,-59.570,-37.109,-72.266,-102.539
1789912768.172217,-60.547,-39.062,-70.312,-99.609
1789912768.175990,-70.312,-41.992,-72.266,-97.168
1789912768.179762,-72.754,-40.039,-75.684,-90.820
1789912768.183535,-70.312,-36.133,-68.359,-83.984
1789912768.187307,-80.078,-38.574,-56.641,-81.543
1789912768.191080,-56.152,-34.180,-54.688,-85.938
1789912768.194853,-46.875,-37.109,-58.594,-82.520
1789912768.199712,-58.594,-38.086,-57.617,-72.754
1789912768.203486,-44.922,-30.762,-51.270,-67.871
1789912768.207261,-34.668,-32.715,-47.852,-61.523
1789912768.211035,-36.621,-31.738,-44.922,-60.547
1789912768.214810,-46.387,-19.043,-40.039,-55.176
1789912768.218585,-51.758,-14.160,-37.109,-39.062
1789912768.222359,-48.828,-19.531,-33.203,-42.969
1789912768.226134,-30.762,-17.090,-32.715,-62.988
1789912768.229908,-7.324,-9.766,-27.832,-51.758
1789912768.233683,-2.930,-2.930,-17.090,-32.715
1789912768.237458,-11.230,1.465,-19.531,-30.762
1789912768.241232,-4.883,6.836,-20.996,-31.738
1789912768.247561,0.000,10.254,-18.066,-26.855
1789912768.251340,0.000,3.418,-20.020,-11.719
1789912768.255120,0.000,12.207,-9.766,7.812
1789912768.258899,0.000,35.156,-3.906,9.766
1789912768.262678,0.000,23.438,-11.719,-15.137
1789912768.266457,0.000,10.254,-21.973,-22.461
1789912768.270237,0.000,14.160,-18.555,-14.160
1789912768.274016,0.000,15.625,-16.113,-20.508
1789912768.277795,0.000,12.207,-21.484,-32.227
1789912768.281574,0.000,6.348,-13.672,-30.273
1789912768.285354,0.000,8.789,-14.160,-37.598
1789912768.289133,0.000,15.625,-22.949,-38.086
1789912768.293149,6.348,16.113,-15.137,-29.297
1789912768.296929,12.207,2.441,-9.766,-27.344
1789912768.300709,21.484,-3.906,-21.484,-31.738
1789912768.304488,41.504,-7.324,-35.645,-45.898
1789912768.308268,32.227,-8.301,-46.875,-38.086
1789912768.312048,10.742,-10.742,-48.340,-29.785
1789912768.315827,-0.488,-21.973,-45.898,-37.598
1789912768.319607,-15.137,-20.508,-41.504,-48.828
1789912768.323387,-18.555,-12.207,-41.504,-54.688
1789912768.327167,0.977,-24.902,-45.410,-53.223
1789912768.330946,-2.441,-25.391,-43.945,-41.016
1789912768.334726,-19.531,-16.113,-42.480,-42.969
1789912768.340043,-21.973,-17.090,-45.410,-37.598
1789912768.343826,-4.883,-21.484,-45.898,-26.855
1789912768.347608,0.977,-20.508,-40.527,-34.668
1789912768.351390,-15.137,-19.531,-41.504,-43.457
1789912768.355173,-20.996,-18.555,-38.086,-30.762
1789912768.358955,-19.531,-14.160,-35.645,-15.137
1789912768.362737,-26.855,-23.926,-43.457,-24.902
1789912768.366520,-47.852,-30.762,-46.875,-38.574
1789912768.370302,-67.383,-27.832,-43.457,-34.180
1789912768.374084,-56.641,-25.879,-48.828,-38.086
1789912768.377867,-54.199,-28.809,-55.664,-59.570
1789912768.381649,-67.871,-34.180,-55.176,-67.871
1789912768.386914,-66.406,-33.691,-56.641,-63.965
1789912768.390699,-59.082,-31.738,-60.059,-65.918
1789912768.394484,-62.500,-34.668,-63.965,-71.777
1789912768.398269,-72.266,-37.598,-69.824,-66.895
1789912768.402054,-86.426,-38.086,-71.289,-70.312
1789912768.405839,-92.773,-44.434,-66.406,-72.754
1789912768.409624,-70.312,-55.176,-68.848,-72.266
1789912768.413409,-55.176,-52.734,-73.242,-69.336
1789912768.417193,-71.777,-47.363,-64.941,-74.219
1789912768.420978,-66.895,-42.480,-62.988,-80.566
1789912768.424763,-58.105,-44.922,-67.871,-72.754
1789912768.428548,-67.383,-50.781,-68.848,-62.500
1789912768.433678,0.000,-52.734,-67.871,-70.312
1789912768.437465,0.000,-48.340,-67.871,-70.312
1789912768.441252,0.000,-40.527,-59.570,-57.617
1789912768.445039,0.000,-40.527,-59.570,-65.918
1789912768.448826,0.000,-41.016,-59.082,-69.824
1789912768.452614,0.000,-37.598,-59.570,-82.031
1789912768.456401,0.000,-40.039,-67.383,-86.426
1789912768.460188,0.000,-46.387,-66.406,-66.895
1789912768.463975,0.000,-44.434,-63.477,-67.383
1789912768.467762,0.000,-43.457,-55.664,-61.035
1789912768.471549,0.000,-47.852,-53.711,-62.988
1789912768.475336,0.000,-50.781,-51.270,-62.500
1789912768.479126,-76.172,-50.293,-43.945,-52.246
1789912768.482913,-71.777,-49.316,-44.434,-65.918
1789912768.486700,-56.152,-46.875,-53.711,-67.383
1789912768.490487,-57.129,-44.922,-62.012,-65.430
1789912768.494274,-59.082,-47.363,-60.059,-69.824
1789912768.498061,-64.453,-44.922,-60.059,-80.078
1789912768.501848,-73.730,-42.480,-63.477,-87.891
1789912768.505635,-71.777,-36.133,-61.523,-72.266
1789912768.509423,-64.941,-32.227,-57.129,-60.547
1789912768.513210,-72.754,-39.551,-57.617,-59.570
1789912768.516997,-63.965,-39.062,-57.617,-65.430
1789912768.520784,-43.945,-40.039,-61.035,-70.801
1789912768.525732,-73.242,-42.969,-54.199,-69.824
1789912768.529521,-75.684,-38.086,-49.316,-65.918
1789912768.533310,-80.566,-37.598,-44.434,-69.336
1789912768.537099,-76.660,-38.086,-42.480,-65.918
1789912768.540888,-72.754,-43.457,-50.293,-62.988
1789912768.544677,-65.430,-47.852,-46.387,-58.594
1789912768.548466,-61.523,-42.969,-44.922,-47.852
1789912768.552255,-53.711,-37.109,-47.363,-71.289
1789912768.556044,-59.082,-39.551,-49.805,-80.566
1789912768.559833,-64.453,-41.016,-51.758,-63.477
1789912768.563622,-63.965,-32.715,-45.898,-68.848
1789912768.567411,-77.148,-32.227,-39.551,-71.289
1789912768.572925,-84.473,-38.574,-45.410,-63.477
1789912768.576717,-63.477,-37.598,-51.758,-52.246
1789912768.580508,-63.477,-38.086,-51.758,-57.617
1789912768.584300,-76.172,-42.480,-48.828,-63.477
1789912768.588092,-67.871,-40.527,-44.434,-62.500
1789912768.591883,-63.965,-39.551,-45.410,-63.965
1789912768.595675,-61.035,-41.504,-44.922,-61.523
1789912768.599467,-66.406,-41.504,-41.016,-70.312
1789912768.603258,-81.055,-46.875,-40.527,-83.008
1789912768.607050,-77.148,-49.805,-37.109,-83.984
1789912768.610842,-66.406,-48.828,-44.434,-70.801
1789912768.614634,-70.801,-50.293,-53.223,-78.125
1789912768.620099,-70.312,-49.316,-49.316,-82.031
1789912768.623893,-73.242,-46.387,-48.828,-84.473
1789912768.627687,-78.613,-49.316,-52.246,-85.449
1789912768.631482,-95.703,-57.129,-53.711,-81.543
1789912768.635276,-88.867,-54.688,-52.246,-77.148
1789912768.639070,-62.988,-51.270,-52.734,-79.102
1789912768.642865,-70.312,-56.152,-52.734,-82.031
1789912768.646659,-87.402,-57.129,-52.734,-67.871
1789912768.650453,-94.238,-51.270,-55.176,-76.172
1789912768.654247,-87.402,-48.828,-55.664,-78.613
1789912768.658042,-72.754,-50.293,-51.758,-72.266
1789912768.661836,-63.965,-51.270,-41.016,-71.777
1789912768.667116,-79.102,-51.270,-41.016,-75.684
1789912768.670913,-78.125,-50.293,-46.875,-72.754
1789912768.674709,-67.871,-52.246,-50.293,-70.801
1789912768.678506,-61.035,-53.223,-51.270,-71.777
1789912768.682302,-59.570,-49.805,-43.945,-72.754
1789912768.686099,-53.223,-43.945,-45.898,-78.125
1789912768.689895,-57.129,-40.039,-48.340,-70.801
1789912768.693692,-66.895,-42.480,-49.805,-68.848
1789912768.697489,-56.152,-43.945,-51.758,-55.664
1789912768.701285,-66.406,-43.945,-45.410,-45.898
1789912768.705081,-88.379,-41.992,-41.504,-57.617
1789912768.708878,-75.195,-42.969,-41.504,-62.012
1789912768.714098,-49.805,-46.387,-38.086,-52.246
1789912768.717897,-60.547,-41.992,-38.086,-59.570
1789912768.721695,-68.359,-35.156,-35.645,-63.477
1789912768.725494,-53.223,-36.133,-34.180,-52.246
1789912768.729293,-46.387,-39.062,-39.551,-56.152
1789912768.733091,-57.129,-42.480,-42.480,-54.688
1789912768.736890,-71.777,-43.457,-31.738,-47.363
1789912768.740689,-62.500,-39.551,-23.438,-39.551
1789912768.744487,-45.898,-28.320,-31.738,-25.879
1789912768.748286,-57.617,-31.738,-40.527,-46.875
1789912768.752084,-62.012,-46.875,-42.480,-66.406
1789912768.755883,-61.523,-45.410,-42.969,-54.688
1789912768.761151,-62.988,-44.434,-42.480,-41.992
1789912768.764951,-74.219,-44.922,-40.527,-49.805
1789912768.768752,-66.895,-36.621,-39.062,-64.453
1789912768.772553,-58.594,-37.109,-39.062,-52.246
1789912768.776354,-75.195,-39.551,-46.387,-42.969
1789912768.780155,-78.613,-32.227,-45.898,-41.504
1789912768.783955,-67.383,-30.273,-34.180,-51.758
1789912768.787756,-47.363,-29.297,-33.203,-43.945
1789912768.791557,-60.059,-30.762,-36.621,-19.043
1789912768.795358,-67.383,-39.062,-41.504,-26.367
1789912768.799159,-66.895,-41.016,-43.457,-45.410
1789912768.802959,-76.660,-42.480,-38.086,-45.410
1789912768.807922,0.000,-44.922,-43.457,-40.039
1789912768.811724,0.000,-41.016,-46.387,-49.316
1789912768.815527,0.000,-36.621,-47.363,-41.992
1789912768.819329,0.000,-31.738,-46.387,-27.344
1789912768.823132,0.000,-34.668,-42.969,-33.203
1789912768.826934,0.000,-39.551,-37.598,-37.598
1789912768.830737,0.000,-36.133,-32.715,-30.273
1789912768.834539,0.000,-30.762,-37.109,-15.137
1789912768.838341,0.000,-29.785,-37.109,-5.859
1789912768.842144,0.000,-26.367,-30.273,-11.230
1789912768.845946,0.000,-18.555,-28.320,-9.766
1789912768.849749,0.000,-15.137,-27.832,-11.719
1789912768.854636,-37.598,-9.766,-20.020,-0.488
1789912768.858440,-27.344,-9.766,-15.137,20.020
1789912768.862244,-33.691,-6.348,-14.160,14.160
1789912768.866048,-22.949,0.000,-10.254,-5.859
1789912768.869852,-34.180,0.977,-12.207,1.953
1789912768.873656,-31.250,3.906,-19.531,15.137
1789912768.877460,-2.441,2.930,-17.090,21.973
1789912768.881264,2.930,5.371,-15.625,29.785
1789912768.885068,-3.906,11.719,-13.184,26.855
1789912768.888872,0.000,12.695,-7.324,32.227
1789912768.892676,2.930,11.719,-9.766,41.016
1789912768.896480,-5.859,15.137,-7.812,39.551
1789912768.901418,5.859,24.902,6.348,39.551
1789912768.905223,21.484,28.320,2.930,51.758
1789912768.909029,10.254,28.320,-6.836,60.547
1789912768.912834,15.625,28.320,-3.906,77.637
1789912768.916640,19.043,24.902,-2.930,70.801
1789912768.920445,4.883,21.973,-5.859,44.922
1789912768.924251,18.066,23.438,-9.277,61.523
1789912768.928056,25.879,25.879,-7.812,72.754
1789912768.931862,7.812,26.367,-12.207,57.129
1789912768.935668,-7.324,20.508,-15.137,48.828
1789912768.939473,-2.930,14.648,-14.648,44.922
1789912768.943279,0.000,10.254,-24.414,45.898
1789912768.948019,-6.836,3.418,-30.273,44.434
1789912768.951825,-32.227,2.441,-26.367,29.297
1789912768.955632,-45.410,0.000,-30.273,24.414
1789912768.959439,-23.438,-5.859,-35.156,26.855
1789912768.963246,-28.320,-5.371,-38.574,37.598
1789912768.967053,-47.852,-5.859,-41.016,32.227
1789912768.970860,-62.500,-9.766,-46.387,14.648
1789912768.974666,-54.688,-3.418,-47.852,20.996
1789912768.978473,-32.715,0.488,-48.828,38.574
1789912768.982280,-54.199,-2.930,-53.223,25.391
1789912768.986087,-70.312,-3.418,-46.875,8.789
1789912768.989894,-55.176,-2.441,-50.293,10.254
1789912768.995167,-37.109,-1.465,-60.547,13.672
1789912768.998976,-46.387,-9.277,-61.523,12.207
1789912769.002785,-62.500,-12.695,-67.383,3.906
1789912769.006594,-69.824,-12.695,-66.406,8.301
1789912769.010402,-69.824,-14.160,-61.523,22.461
1789912769.014211,-69.824,-16.602,-66.895,0.000
1789912769.018020,-78.125,-19.043,-70.801,-26.855
1789912769.021829,-81.055,-20.996,-69.336,-15.137
1789912769.025638,-68.359,-20.996,-68.848,-5.371
1789912769.029447,-53.711,-20.508,-66.895,-3.418
1789912769.033255,-73.242,-17.578,-64.453,-9.277
1789912769.037064,-74.707,-19.043,-71.289,-9.277
1789912769.042196,0.000,-24.902,-79.102,-7.812
1789912769.046006,0.000,-29.297,-79.590,-10.254
1789912769.049817,0.000,-31.738,-80.078,-15.137
1789912769.053627,0.000,-37.598,-82.031,-17.578
1789912769.057438,0.000,-39.062,-84.473,-13.672
1789912769.061249,0.000,-37.598,-81.543,-5.859
1789912769.065059,0.000,-41.504,-79.590,-12.695
1789912769.068870,0.000,-41.016,-83.496,-21.973
1789912769.072680,0.000,-36.133,-80.566,-3.418
1789912769.076491,0.000,-36.133,-73.242,10.254
1789912769.080301,0.000,-37.109,-77.637,-1.465
1789912769.084112,0.000,-36.133,-69.824,-3.906
1789912769.088011,-79.102,-35.645,-65.918,5.859
1789912769.091822,-94.727,-32.715,-74.707,20.020
1789912769.095633,-90.332,-31.250,-75.684,18.555
1789912769.099443,-100.586,-30.762,-76.660,7.812
1789912769.103254,-94.238,-36.133,-74.219,3.906
1789912769.107065,-75.684,-33.203,-69.824,2.441
1789912769.110875,-88.867,-27.344,-69.336,5.371
1789912769.114686,-99.121,-27.344,-62.500,3.418
1789912769.118497,-89.844,-27.832,-57.617,-1.465
1789912769.122307,-75.195,-26.855,-63.965,7.812
1789912769.126118,-72.266,-24.902,-60.547,4.883
1789912769.129929,-78.613,-28.809,-54.199,1.953
1789912769.134916,-61.523,-28.809,-55.664,1.953
1789912769.138728,-55.176,-26.367,-50.781,1.953
1789912769.142540,-61.035,-24.902,-49.805,9.277
1789912769.146352,-55.664,-23.438,-55.176,3.418
1789912769.150165,-55.176,-25.879,-52.246,-1.465
1789912769.153977,-62.012,-22.461,-49.805,1.465
1789912769.157789,-64.453,-23.438,-54.199,3.418
1789912769.161601,-64.453,-29.297,-59.082,-0.977
1789912769.165413,-64.453,-26.367,-57.617,-17.578
1789912769.169225,-58.105,-22.949,-59.082,-21.484
1789912769.173038,-59.570,-21.973,-59.082,-1.465
1789912769.176850,-56.152,-19.531,-59.082,8.301
1789912769.181764,-46.387,-19.043,-54.688,-5.371
1789912769.185578,-48.340,-24.414,-53.223,-9.766
1789912769.189391,-49.805,-22.949,-57.129,-1.465
1789912769.193205,-57.617,-23.926,-53.223,4.883
1789912769.197019,-64.941,-28.809,-57.129,-5.371
1789912769.200832,-66.406,-26.367,-62.500,-17.578
1789912769.204646,-66.406,-22.949,-56.641,-10.742
1789912769.208459,-69.824,-26.855,-58.105,-21.484
1789912769.212273,-73.242,-34.180,-63.965,-26.855
1789912769.216086,-74.707,-23.438,-60.547,-22.461
1789912769.219900,-71.777,-15.137,-52.734,-16.602
1789912769.223714,-56.152,-20.508,-58.594,-6.836
1789912769.228551,-37.598,-20.996,-60.059,-4.883
1789912769.232366,-61.035,-22.949,-50.293,-2.930
1789912769.236181,-81.543,-27.344,-45.898,-9.766
1789912769.239996,-58.594,-28.809,-47.363,-14.160
1789912769.243810,-45.410,-27.832,-49.805,0.977
1789912769.247625,-46.875,-26.855,-47.363,1.465
1789912769.251440,-62.500,-25.879,-46.875,-12.207
1789912769.255255,-72.266,-23.438,-50.781,-15.137
1789912769.259070,-53.711,-22.949,-51.270,-17.090
1789912769.262885,-48.340,-17.578,-50.781,-17.090
1789912769.266700,-61.035,-16.602,-47.363,-17.090
1789912769.270514,-62.500,-23.926,-46.875,-15.625
1789912769.275254,-51.270,-24.414,-50.781,-15.625
1789912769.279070,-61.523,-28.320,-49.805,-15.625
1789912769.282886,-76.172,-32.715,-52.734,-20.020
1789912769.286702,-73.242,-34.180,-57.129,-10.742
1789912769.290518,-71.289,-38.086,-54.199,-2.930
1789912769.294334,-64.453,-37.598,-50.781,-5.859
1789912769.298150,-73.730,-31.738,-44.922,-9.277
1789912769.301966,-83.984,-32.715,-45.898,-22.949
1789912769.305782,-80.566,-37.598,-50.293,-33.203
1789912769.309598,-66.406,-36.133,-53.223,-37.598
1789912769.313414,-59.570,-35.645,-55.176,-39.551
1789912769.317230,-64.941,-33.691,-55.176,-28.809
1789912769.321909,-61.035,-37.109,-54.199,-17.578
1789912769.325726,-56.641,-34.668,-45.898,-13.672
1789912769.329543,-50.781,-28.320,-44.922,-9.277
1789912769.333360,-59.570,-27.832,-46.387,-26.855
1789912769.337177,-62.500,-27.832,-40.039,-30.273
1789912769.340994,-52.734,-28.809,-38.086,-15.137
1789912769.344811,-53.223,-32.715,-43.945,-25.391
1789912769.348628,-62.988,-41.504,-43.945,-46.875
1789912769.352445,-57.617,-40.527,-36.621,-31.250
1789912769.356262,-60.547,-35.156,-40.527,-0.977
1789912769.360079,-70.312,-34.180,-47.363,-3.418
1789912769.363896,-64.453,-37.109,-41.016,-21.973
1789912769.369086,-54.199,-39.062,-42.969,-29.785
1789912769.372905,-48.340,-36.621,-47.363,-41.016
1789912769.376724,-47.852,-35.645,-45.410,-41.992
1789912769.380542,-69.824,-34.668,-44.922,-33.203
1789912769.384361,-76.660,-29.785,-41.992,-27.344
1789912769.388180,-51.270,-32.227,-40.527,-23.438
1789912769.391998,-52.734,-36.621,-41.992,-23.926
1789912769.395817,-67.383,-36.621,-44.434,-30.273
1789912769.399635,-65.918,-34.180,-40.039,-34.668
1789912769.403454,-48.828,-32.227,-32.715,-22.949
1789912769.407273,-43.945,-31.250,-33.691,-24.414
1789912769.411091,-59.570,-31.250,-44.922,-27.344
1789912769.416142,-67.383,-33.691,-41.992,-27.832
1789912769.419962,-67.871,-39.551,-40.527,-22.461
1789912769.423783,-70.801,-41.504,-46.387,-15.625
1789912769.427603,-76.172,-41.016,-43.457,-21.973
1789912769.431423,-72.266,-39.551,-40.527,-25.391
1789912769.435243,-66.895,-37.109,-35.156,-35.156
1789912769.439063,-58.594,-36.621,-37.109,-39.062
1789912769.442883,-35.645,-33.691,-43.457,-27.344
1789912769.446703,-41.504,-38.086,-41.016,-13.672
1789912769.450523,-62.012,-36.621,-37.598,-17.578
1789912769.454343,-56.641,-32.715,-40.039,-22.461
1789912769.458163,-51.758,-30.762,-41.504,-23.438
1789912769.463132,-40.039,-25.391,-37.109,-13.184
1789912769.466953,-45.410,-23.926,-28.320,-14.160
1789912769.470774,-54.199,-28.320,-25.391,-20.508
1789912769.474596,-40.527,-25.879,-24.414,-13.184
1789912769.478417,-37.109,-21.484,-25.879,-15.137
1789912769.482239,-49.805,-20.996,-26.855,-23.926
1789912769.486060,-50.293,-19.531,-24.414,-34.180
1789912769.489882,-33.691,-13.184,-25.391,-27.344
1789912769.493703,-19.531,-12.207,-19.531,0.488
1789912769.497524,-24.414,-6.836,-14.648,5.859
1789912769.501346,-19.043,-6.348,-18.555,-5.859
1789912769.505167,-6.836,-11.230,-12.695,-0.977
1789912769.510088,-6.348,1.465,-3.906,5.859
1789912769.513911,2.441,14.160,-7.324,7.324
1789912769.517734,4.395,10.742,-4.395,20.508
1789912769.521556,1.953,22.461,5.859,28.320
1789912769.525379,7.812,26.367,10.742,15.625
1789912769.529202,1.465,7.324,7.324,1.953
1789912769.533024,7.324,7.812,1.465,6.836
1789912769.536847,9.766,13.672,9.277,15.137
1789912769.540670,-12.207,12.207,20.508,4.883
1789912769.544492,4.883,16.602,12.207,6.836
1789912769.548315,21.484,28.809,1.465,17.578
1789912769.552138,9.277,30.273,10.254,19.043
1789912769.556970,12.207,21.484,9.766,23.926
1789912769.560794,17.578,24.902,3.418,32.715
1789912769.564618,18.555,21.973,8.301,29.785
1789912769.568441,9.277,17.090,6.348,19.531
1789912769.572265,20.020,26.855,2.930,14.648
1789912769.576089,18.555,17.090,0.000,1.465
1789912769.579913,9.766,8.789,-5.859,4.883
1789912769.583737,14.648,15.625,-4.883,23.438
1789912769.587560,4.395,10.254,-7.324,32.715
1789912769.591384,5.859,9.766,-3.418,34.668
1789912769.595208,6.348,11.230,-6.836,26.855
1789912769.599032,10.254,15.137,-16.602,27.344
1789912769.603766,13.672,16.602,-20.020,24.414
1789912769.607591,-3.418,12.207,-25.879,13.184
1789912769.611415,-9.766,5.371,-35.645,6.348
1789912769.615240,-8.789,-3.418,-41.016,13.672
1789912769.619065,-12.695,0.488,-34.668,18.555
1789912769.622890,-3.418,3.418,-34.180,8.789
1789912769.626715,6.836,0.000,-34.668,10.254
1789912769.630540,-9.766,-2.441,-35.645,20.996
1789912769.634364,-22.461,-0.977,-39.551,9.766
1789912769.638189,-28.320,2.441,-44.434,3.418
1789912769.642014,-20.996,-3.906,-48.828,19.531
1789912769.645839,-9.277,-2.441,-41.992,21.484
1789912769.650528,-23.438,-1.465,-41.504,5.371
1789912769.654354,-28.320,-4.395,-49.316,-8.301
1789912769.658180,-30.273,-10.742,-52.246,-21.484
1789912769.662005,-39.062,-19.531,-60.059,-25.879
1789912769.665831,-51.270,-24.414,-64.453,-27.344
1789912769.669657,-39.551,-24.902,-54.199,-29.297
1789912769.673483,-35.156,-27.344,-57.617,-26.367
1789912769.677309,-46.875,-30.273,-68.359,-32.227
1789912769.681134,-46.875,-29.785,-67.383,-42.969
1789912769.684960,-56.152,-30.762,-59.570,-39.062
1789912769.688786,-61.523,-34.668,-61.523,-37.598
1789912769.692612,-54.199,-38.086,-67.871,-45.898
1789912769.697317,-53.223,-43.945,-71.777,-44.922
1789912769.701144,-63.477,-44.434,-72.266,-42.480
1789912769.704971,-75.684,-40.039,-66.895,-33.203
1789912769.708798,-57.129,-44.922,-68.359,-29.297
1789912769.712624,-42.969,-43.945,-66.895,-41.016
1789912769.716451,-60.059,-40.527,-64.453,-58.594
1789912769.720278,-61.523,-41.504,-69.336,-53.711
1789912769.724105,-67.871,-45.410,-69.336,-49.316
1789912769.727931,-66.406,-47.363,-66.406,-48.828
1789912769.731758,-62.012,-44.434,-66.895,-48.340
1789912769.735585,-72.266,-45.898,-67.383,-59.570
1789912769.739412,-68.848,-53.711,-72.754,-61.523
1789912769.744557,-64.941,-53.711,-67.383,-47.363
1789912769.748385,-59.570,-43.945,-62.500,-42.480
1789912769.752213,-67.383,-40.039,-62.500,-46.875
1789912769.756041,-73.242,-40.527,-62.012,-51.758
1789912769.759870,-56.152,-43.945,-71.289,-50.293
1789912769.763698,-51.758,-43.945,-68.359,-39.551
1789912769.767526,-63.965,-42.480,-62.500,-42.480
1789912769.771354,-71.777,-47.363,-67.383,-49.805
1789912769.775182,-67.383,-46.875,-60.547,-32.715
1789912769.779010,-46.387,-36.133,-52.246,-18.555
1789912769.782838,-40.527,-32.715,-56.152,-37.598
1789912769.786666,-59.570,-34.668,-61.523,-51.270
1789912769.791585,-60.059,-38.574,-58.105,-41.016
1789912769.795414,-41.016,-47.852,-57.129,-40.039
1789912769.799243,-52.734,-50.781,-62.988,-49.316
1789912769.803073,-74.707,-48.828,-63.477,-55.176
1789912769.806902,-75.684,-46.875,-58.105,-53.223
1789912769.810731,-58.105,-50.293,-61.035,-41.016
1789912769.814561,-55.176,-52.246,-64.453,-42.480
1789912769.818390,-51.270,-44.922,-63.965,-52.734
1789912769.822219,-43.945,-43.457,-61.035,-42.480
1789912769.826049,-50.293,-40.039,-58.105,-40.039
1789912769.829878,-67.383,-39.062,-60.059,-44.922
1789912769.833707,-81.543,-41.992,-60.059,-52.246
1789912769.838566,-56.152,-41.992,-59.570,-55.664
1789912769.842396,-38.086,-48.340,-64.941,-59.570
1789912769.846227,-58.594,-45.410,-64.941,-57.617
1789912769.850057,-73.242,-39.062,-61.035,-46.875
1789912769.853888,-74.219,-43.945,-61.035,-60.059
1789912769.857718,-75.195,-49.316,-67.871,-63.477
1789912769.861548,-52.246,-49.805,-70.801,-58.594
1789912769.865379,-52.734,-47.852,-65.430,-55.176
1789912769.869209,-74.219,-51.758,-66.406,-62.012
1789912769.873039,-70.312,-51.270,-64.453,-66.895
1789912769.876870,-70.312,-44.434,-62.988,-52.734
1789912769.880700,-69.336,-39.062,-58.105,-36.133
1789912769.885501,-66.406,-38.086,-55.664,-25.879
1789912769.889332,-71.289,-39.551,-61.523,-19.043
1789912769.893163,-57.129,-42.480,-62.988,-20.020
1789912769.896995,-52.734,-44.922,-63.477,-26.855
1789912769.900826,-55.664,-40.527,-59.082,-29.785
1789912769.904658,-39.062,-38.086,-61.035,-41.504
1789912769.908489,-46.875,-36.621,-59.570,-43.457
1789912769.912320,-56.152,-35.645,-55.664,-30.762
1789912769.916152,-58.594,-40.039,-62.988,-32.227
1789912769.919983,-64.941,-41.016,-58.594,-44.922
1789912769.923814,-59.082,-36.621,-55.664,-47.852
1789912769.927646,-67.383,-33.691,-58.594,-43.457
1789912769.932365,-60.547,-36.621,-53.223,-40.039
1789912769.936197,-54.688,-37.598,-54.688,-42.969
1789912769.940029,-57.129,-37.598,-54.199,-37.598
1789912769.943862,-53.711,-39.551,-46.875,-33.203
1789912769.947694,-66.406,-38.574,-49.805,-33.691
1789912769.951526,-84.473,-37.598,-49.805,-42.969
1789912769.955359,-82.520,-45.410,-48.828,-58.105
1789912769.959191,-66.406,-50.293,-53.223,-44.922
1789912769.963023,-52.734,-46.387,-54.688,-28.809
1789912769.966855,-53.711,-44.434,-54.688,-33.203
1789912769.970688,-64.453,-42.480,-57.129,-35.156
1789912769.974520,-61.035,-39.062,-56.641,-26.855
1789912769.979182,0.000,-37.109,-51.758,-23.438
1789912769.983015,0.000,-33.203,-48.828,-26.367
1789912769.986848,0.000,-37.109,-53.711,-25.391
1789912769.990681,0.000,-40.527,-55.664,-20.508
1789912769.994514,0.000,-39.062,-50.781,-28.320
1789912769.998347,0.000,-39.551,-48.340,-43.457
1789912770.002181,0.000,-38.574,-53.711,-32.715
1789912770.006014,0.000,-30.273,-54.199,-20.996
1789912770.009847,0.000,-27.344,-47.363,-35.156
1789912770.013680,0.000,-30.762,-52.734,-41.016
1789912770.017513,0.000,-27.832,-47.363,-38.574
1789912770.021346,0.000,-27.344,-38.086,-37.598
1789912770.025924,-61.523,-29.297,-37.598,-35.645
1789912770.029758,-65.918,-32.227,-37.109,-38.086
1789912770.033592,-64.453,-31.250,-41.504,-39.551
1789912770.037426,-61.035,-28.809,-39.062,-27.344
1789912770.041260,-62.988,-30.762,-39.062,-30.273
1789912770.045093,-48.828,-32.715,-35.645,-36.133
1789912770.048927,-56.641,-36.133,-28.320,-20.996
1789912770.052761,-78.613,-36.133,-29.785,-27.344
1789912770.056595,-75.195,-27.832,-24.414,-39.551
1789912770.060429,-70.312,-31.738,-28.320,-42.969
1789912770.064263,-63.965,-31.738,-28.809,-32.715
1789912770.068096,-64.453,-26.855,-26.855,-25.879
1789912770.073079,-70.801,-32.227,-29.785,-42.969
1789912770.076914,-70.312,-38.574,-34.668,-47.852
1789912770.080749,-77.148,-39.062,-36.621,-43.457
1789912770.084584,-82.031,-28.809,-34.180,-38.574
1789912770.088418,-85.449,-23.926,-30.273,-43.457
1789912770.092253,-73.242,-25.391,-32.715,-42.480
1789912770.096088,-62.500,-23.438,-31.738,-31.250
1789912770.099923,-64.941,-20.020,-29.297,-34.180
1789912770.103758,-61.523,-17.578,-28.320,-46.387
1789912770.107593,-62.500,-15.625,-24.902,-41.992
1789912770.111428,-29.297,-13.672,-26.855,-30.273
1789912770.115263,-20.020,-13.184,-27.344,-34.668
1789912770.120615,-67.383,-15.625,-27.832,-42.480
1789912770.124451,-71.777,-18.066,-27.344,-42.480
1789912770.128288,-52.246,-16.113,-32.227,-30.762
1789912770.132124,-42.969,-17.090,-28.320,-26.367
1789912770.135961,-41.992,-18.555,-23.438,-38.574
1789912770.139797,-37.109,-12.695,-22.949,-38.086
1789912770.143634,-28.809,-10.742,-22.461,-33.203
1789912770.147470,-6.348,-12.207,-20.996,-24.902
1789912770.151306,-17.578,-13.184,-25.879,-32.227
1789912770.155143,-53.711,-14.648,-23.438,-25.391
1789912770.158979,-46.387,-9.766,-9.277,-11.719
1789912770.162816,-24.414,-0.977,-10.742,-15.137
1789912770.167628,-13.184,11.230,-10.742,1.465
1789912770.171465,-12.207,17.090,-4.395,7.324
1789912770.175303,-16.602,19.531,-2.441,-5.371
1789912770.179140,-1.953,17.578,0.000,-3.906
1789912770.182977,18.066,20.996,2.441,0.977
1789912770.186815,6.348,23.438,5.371,3.906
1789912770.190652,4.395,24.902,4.883,11.230
1789912770.194489,20.996,28.320,5.371,13.672
1789912770.198327,24.414,26.855,12.207,5.859
1789912770.202164,20.508,26.367,11.719,6.348
1789912770.206002,33.691,29.297,12.695,21.973
1789912770.209839,34.180,30.762,13.184,32.715
1789912770.215027,0.000,27.344,5.371,44.922
1789912770.218865,0.000,24.414,5.371,45.898
1789912770.222704,0.000,28.320,4.883,33.203
1789912770.226543,0.000,27.344,-2.930,20.020
1789912770.230381,0.000,20.996,-8.301,21.973
1789912770.234220,0.000,20.020,-8.789,33.691
1789912770.238059,0.000,20.020,-8.789,38.574
1789912770.241897,0.000,14.160,-6.348,33.203
1789912770.245736,0.000,8.301,-9.277,27.344
1789912770.249575,0.000,5.859,-20.508,32.715
1789912770.253413,0.000,6.836,-20.020,34.180
1789912770.257252,0.000,1.953,-19.531,31.250
1789912770.261906,0.488,-3.906,-23.926,17.578
1789912770.265746,-3.906,-7.812,-27.344,9.277
1789912770.269585,-23.926,-9.277,-33.203,-11.230
1789912770.273425,-28.809,-11.719,-41.504,-15.137
1789912770.277264,-6.348,-12.695,-37.598,5.859
1789912770.281103,-5.859,-13.672,-36.133,5.859
1789912770.284943,-25.879,-17.090,-43.457,-4.883
1789912770.288782,-31.738,-14.648,-37.109,-3.906
1789912770.292622,-28.320,-11.230,-33.691,7.324
1789912770.296461,-22.461,-16.602,-37.598,8.789
1789912770.300301,-21.484,-20.020,-43.457,0.488
1789912770.304140,-38.574,-21.484,-52.734,-16.113
1789912770.308746,0.000,-29.297,-56.152,-20.508
1789912770.312586,0.000,-28.320,-61.035,-22.949
1789912770.316426,0.000,-25.391,-64.453,-26.367
1789912770.320266,0.000,-22.949,-57.129,-26.855
1789912770.324106,0.000,-19.043,-50.781,-28.809
1789912770.327946,0.000,-23.926,-55.176,-20.508
1789912770.331786,0.000,-28.809,-56.152,-15.625
1789912770.335626,0.000,-30.762,-52.734,-26.855
1789912770.339467,0.000,-39.551,-52.734,-38.086
1789912770.343307,0.000,-40.039,-53.711,-26.367
1789912770.347147,0.000,-35.156,-56.641,-20.996
1789912770.350987,0.000,-30.762,-56.152,-43.457
1789912770.355556,-37.598,-25.879,-54.199,-43.457
1789912770.359397,-27.344,-24.414,-53.223,-23.438
1789912770.363237,-45.410,-29.297,-51.270,-26.367
1789912770.367078,-71.777,-36.621,-55.664,-31.738
1789912770.370919,-64.941,-32.715,-56.641,-45.410
1789912770.374760,-56.641,-26.855,-59.570,-53.711
1789912770.378601,-44.434,-29.785,-56.641,-23.438
1789912770.382441,-21.973,-27.832,-49.316,4.883
1789912770.386282,-24.414,-20.508,-53.223,-16.113
1789912770.390123,-60.547,-25.879,-62.500,-43.457
1789912770.393964,-73.730,-33.203,-69.824,-51.270
1789912770.397804,-46.875,-30.762,-74.219,-46.875
1789912770.402302,-50.293,-30.273,-68.848,-40.527
1789912770.406143,-68.359,-30.762,-68.848,-58.594
1789912770.409984,-57.617,-27.832,-69.824,-69.824
1789912770.413826,-42.969,-24.902,-61.523,-51.758
1789912770.417667,-42.480,-26.367,-62.988,-57.617
1789912770.421508,-51.758,-23.438,-62.012,-64.941
1789912770.425350,-51.758,-20.996,-59.082,-40.039
1789912770.429191,-49.805,-28.809,-60.547,-36.133
1789912770.433033,-62.988,-34.180,-63.965,-58.594
1789912770.436874,-57.617,-29.785,-64.941,-52.246
1789912770.440715,-42.480,-24.902,-58.105,-33.203
1789912770.444557,-37.598,-24.902,-47.852,-23.926
1789912770.449005,-47.852,-24.902,-45.410,-17.090
1789912770.452847,-53.711,-25.391,-52.734,-25.879
1789912770.456689,-60.059,-22.949,-54.199,-32.227
1789912770.460531,-48.828,-22.949,-46.875,-24.902
1789912770.464373,-27.832,-27.832,-45.898,-18.555
1789912770.468215,-38.574,-25.391,-50.781,-16.602
1789912770.472057,-49.805,-18.066,-53.711,-26.855
1789912770.475899,-50.293,-18.555,-53.711,-18.066
1789912770.479741,-30.273,-24.414,-52.246,-1.465
1789912770.483582,-17.578,-24.902,-51.758,0.977
1789912770.487424,-40.039,-20.996,-52.246,-9.766
1789912770.491266,-37.109,-20.508,-48.828,-10.742
1789912770.496091,-22.461,-26.855,-52.734,2.441
1789912770.499933,-32.715,-32.715,-55.664,-0.488
1789912770.503776,-37.598,-25.879,-51.270,-17.090
1789912770.507619,-33.691,-25.879,-59.082,-24.414
1789912770.511462,-36.621,-32.715,-62.988,-19.531
1789912770.515305,-39.551,-37.598,-63.965,-20.996
1789912770.519147,-46.875,-39.551,-62.988,-42.480
1789912770.522990,-43.457,-40.039,-62.988,-38.086
1789912770.526833,-39.062,-43.945,-65.430,-30.762
1789912770.530676,-37.598,-42.480,-64.941,-30.762
1789912770.534519,-42.969,-37.598,-58.105,-20.020
1789912770.538362,-51.270,-37.109,-61.523,-23.926
1789912770.543092,-51.270,-33.203,-57.617,-20.020
1789912770.546936,-46.875,-34.668,-49.805,-24.902
1789912770.550780,-26.367,-35.156,-56.641,-26.855
1789912770.554623,-40.039,-34.668,-60.547,-24.902
1789912770.558467,-70.312,-38.086,-62.988,-20.996
1789912770.562310,-56.641,-34.180,-62.988,-6.836
1789912770.566154,-53.711,-32.227,-57.617,-6.348
1789912770.569998,-59.570,-34.180,-55.176,-24.414
1789912770.573841,-41.504,-34.668,-55.664,-29.297
1789912770.577685,-29.297,-35.645,-52.734,-20.996
1789912770.581528,-36.621,-31.738,-55.176,-7.324
1789912770.585372,-43.945,-29.785,-59.570,-13.184
1789912770.590046,-51.758,-29.785,-57.129,-28.809
1789912770.593890,-45.410,-30.762,-55.664,-23.926
1789912770.597735,-36.133,-36.133,-63.477,-34.668
1789912770.601579,-51.270,-40.527,-70.312,-52.734
1789912770.605423,-59.570,-39.551,-66.895,-38.574
1789912770.609268,-51.270,-39.551,-64.941,-37.109
1789912770.613112,-55.176,-44.434,-71.289,-41.016
1789912770.616956,-62.988,-41.504,-69.336,-37.598
1789912770.620800,-57.129,-32.715,-60.547,-39.551
1789912770.624645,-44.434,-30.762,-56.152,-38.574
1789912770.628489,-22.949,-27.832,-52.246,-31.250
1789912770.632334,-26.855,-25.391,-53.711,-17.090
1789912770.636958,-36.133,-22.461,-57.129,-15.137
1789912770.640803,-48.828,-30.273,-58.105,-35.645
1789912770.644648,-62.500,-36.621,-59.082,-51.270
1789912770.648493,-57.617,-31.250,-58.105,-39.551
1789912770.652338,-51.270,-31.738,-53.711,-40.527
1789912770.656183,-38.574,-30.762,-50.781,-38.574
1789912770.660028,-53.711,-31.250,-54.199,-23.926
1789912770.663872,-52.246,-33.691,-57.129,-23.926
1789912770.667717,-45.898,-29.785,-55.176,-34.180
1789912770.671562,-50.781,-27.344,-58.105,-47.852
1789912770.675407,-56.152,-30.762,-64.453,-60.059
1789912770.679252,-64.941,-35.156,-69.824,-65.918
1789912770.683818,-68.848,-34.180,-64.453,-58.594
1789912770.687663,-61.523,-33.691,-58.105,-45.898
1789912770.691509,-41.992,-32.715,-61.523,-47.852
1789912770.695354,-45.898,-29.297,-60.059,-53.711
1789912770.699200,-75.684,-25.879,-55.176,-51.270
1789912770.703046,-66.406,-25.391,-56.152,-53.223
1789912770.706891,-75.195,-29.297,-57.617,-52.734
1789912770.710737,-62.988,-31.250,-53.711,-27.344
1789912770.714582,-38.574,-33.203,-47.852,-20.508
1789912770.718428,-54.199,-30.273,-44.434,-41.992
1789912770.722274,-56.152,-25.879,-42.969,-62.012
1789912770.726119,-47.852,-30.762,-41.016,-64.453
1789912770.730603,-55.664,-31.738,-47.852,-50.781
1789912770.734449,-72.266,-32.227,-55.176,-46.875
1789912770.738295,-66.895,-32.715,-54.688,-53.711
1789912770.742141,-69.336,-39.062,-55.176,-51.270
1789912770.745987,-57.129,-43.457,-55.176,-53.223
1789912770.749834,-43.945,-41.016,-61.035,-65.430
1789912770.753680,-74.707,-43.945,-65.430,-63.477
1789912770.757526,-62.500,-45.898,-63.965,-55.176
1789912770.761372,-56.152,-42.480,-59.570,-57.129
1789912770.765218,-59.082,-36.133,-62.012,-62.988
1789912770.769064,-32.227,-33.203,-69.824,-45.410
1789912770.772910,-26.367,-33.203,-67.383,-37.109
1789912770.777793,-26.367,-33.691,-61.035,-39.551
1789912770.781640,-30.762,-30.273,-54.688,-30.762
1789912770.785486,-46.387,-22.461,-46.875,-30.762
1789912770.789334,-52.246,-23.926,-42.480,-46.875
1789912770.793180,-30.273,-29.785,-43.945,-45.410
1789912770.797028,-18.066,-31.250,-35.156,-29.785
1789912770.800874,-36.621,-30.273,-34.668,-20.020
1789912770.804721,-59.082,-27.344,-46.387,-20.508
1789912770.808568,-39.551,-21.484,-42.480,-37.109
1789912770.812415,-12.207,-13.672,-30.762,-21.484
1789912770.816262,-2.930,-3.418,-26.855,-5.371
1789912770.820109,-0.488,2.441,-23.926,-3.906
1789912770.824882,-11.719,1.465,-17.578,6.836
1789912770.828729,-17.578,5.859,-18.066,6.836
1789912770.832577,5.371,13.184,-17.578,0.488
1789912770.836425,22.461,14.160,-14.160,-3.906
1789912770.840273,8.789,14.648,-14.648,-7.324
1789912770.844121,11.719,15.137,-14.160,-6.836
1789912770.847968,15.137,20.508,-10.742,3.418
1789912770.851816,13.672,23.926,-6.836,15.137
1789912770.855664,5.859,21.484,-11.230,9.277
1789912770.859511,-1.465,26.855,-13.184,11.230
1789912770.863359,26.855,33.203,-15.625,34.668
1789912770.867207,19.531,32.227,-15.137,23.926
1789912770.871919,-6.348,30.762,-11.230,-2.930
1789912770.875768,-5.371,27.832,-6.348,1.953
1789912770.879616,8.301,19.043,-8.301,10.254
1789912770.883465,19.531,14.648,-22.949,5.371
1789912770.887313,7.324,17.090,-24.902,4.883
1789912770.891161,2.441,13.672,-21.973,12.695
1789912770.895010,10.742,7.812,-19.043,8.301
1789912770.898859,2.441,4.883,-21.973,-4.883
1789912770.902707,-27.832,4.395,-25.879,-15.137
1789912770.906555,-31.738,2.930,-30.762,-13.184
1789912770.910404,-19.531,0.488,-33.203,4.395
1789912770.914252,-9.277,2.441,-27.832,18.066
1789912770.918925,-25.391,3.418,-32.715,-15.625
1789912770.922775,-41.992,0.488,-46.387,-54.199
1789912770.926624,-26.855,-2.930,-52.734,-45.410
1789912770.930473,-3.906,-2.930,-49.316,-39.551
1789912770.934322,-22.949,-5.859,-54.688,-42.969
1789912770.938171,-65.918,-10.254,-59.082,-57.617
1789912770.942020,-57.617,-19.043,-53.223,-62.988
1789912770.945869,-39.551,-23.438,-55.176,-53.711
1789912770.949718,-41.992,-19.043,-59.082,-35.645
1789912770.953568,-46.387,-21.484,-60.547,-50.781
1789912770.957417,-36.621,-22.949,-54.199,-68.848
1789912770.961266,-30.273,-22.461,-54.199,-63.477
1789912770.965871,-40.039,-28.809,-62.988,-61.035
1789912770.969721,-53.711,-33.203,-57.617,-62.500
1789912770.973570,-57.129,-33.203,-66.406,-70.312
1789912770.977420,-52.734,-37.598,-74.219,-64.453
1789912770.981270,-49.316,-44.922,-67.871,-55.664
1789912770.985120,-55.664,-41.504,-70.801,-53.711
1789912770.988969,-56.152,-37.109,-73.242,-71.289
1789912770.992819,-41.016,-45.898,-77.148,-81.543
1789912770.996669,-42.969,-51.270,-81.055,-69.336
1789912771.000518,-53.711,-47.363,-78.613,-65.918
1789912771.004368,-66.895,-41.504,-71.289,-74.707
1789912771.008218,-51.270,-39.551,-63.965,-70.801
1789912771.012808,-43.457,-38.086,-62.500,-65.430
1789912771.016658,-49.805,-40.527,-69.824,-70.801
1789912771.020508,-59.082,-39.062,-77.148,-65.918
1789912771.024359,-63.477,-37.109,-75.684,-56.641
1789912771.028209,-58.105,-38.086,-76.172,-60.547
1789912771.032059,-57.129,-41.016,-78.613,-61.523
1789912771.035909,-50.293,-42.969,-74.707,-65.430
1789912771.039760,-56.152,-33.203,-75.195,-79.590
1789912771.043610,-53.711,-29.785,-76.660,-80.566
1789912771.047460,-48.340,-38.574,-73.730,-72.266
1789912771.051311,-60.059,-41.016,-71.289,-69.824
1789912771.055161,-51.758,-41.016,-67.871,-73.730
1789912771.059660,-60.059,-43.457,-68.359,-81.543
1789912771.063511,-67.383,-39.062,-68.359,-75.684
1789912771.067361,-63.477,-35.645,-65.430,-66.895
1789912771.071212,-65.430,-30.762,-58.594,-62.988
1789912771.075063,-56.641,-25.879,-53.223,-54.199
1789912771.078914,-43.457,-26.367,-56.641,-49.316
1789912771.082765,-45.898,-28.809,-54.688,-58.594
1789912771.086616,-58.594,-33.203,-60.059,-54.688
1789912771.090466,-52.734,-32.715,-64.941,-41.016
1789912771.094317,-53.223,-34.180,-64.941,-58.105
1789912771.098168,-44.434,-39.062,-63.477,-67.871
1789912771.102019,-48.340,-38.574,-59.082,-63.477
1789912771.106824,-57.617,-38.086,-57.617,-72.754
1789912771.110675,-54.199,-39.551,-58.594,-80.078
1789912771.114527,-58.594,-37.109,-62.012,-60.547
1789912771.118379,-39.551,-32.715,-64.941,-41.504
1789912771.122230,-33.203,-36.133,-67.383,-49.805
1789912771.126082,-38.574,-40.039,-63.965,-62.988
1789912771.129933,-40.039,-44.922,-68.359,-64.941
1789912771.133785,-55.176,-49.805,-65.430,-59.570
1789912771.137636,-65.918,-43.945,-59.570,-75.195
1789912771.141488,-50.781,-42.480,-62.500,-82.031
1789912771.145339,-49.316,-39.551,-61.035,-72.754
1789912771.149191,-42.480,-35.156,-63.965,-66.406
1789912771.153601,-49.316,-34.180,-64.453,-68.848
1789912771.157453,-53.223,-31.250,-61.035,-74.707
1789912771.161305,-30.273,-29.297,-60.547,-69.336
1789912771.165157,-34.180,-29.297,-63.477,-61.523
1789912771.169009,-58.105,-39.551,-66.895,-67.871
1789912771.172861,-58.594,-42.969,-60.059,-63.477
1789912771.176713,-55.176,-41.992,-58.105,-62.012
1789912771.180565,-61.523,-42.969,-63.965,-76.660
1789912771.184417,-58.105,-37.598,-63.477,-71.777
1789912771.188269,-60.547,-37.109,-60.059,-73.730
1789912771.192121,-58.105,-38.574,-66.406,-72.266
1789912771.195973,-51.758,-41.504,-75.684,-66.406
1789912771.200640,-54.688,-41.504,-69.336,-65.430
1789912771.204493,-69.824,-37.109,-62.012,-72.266
1789912771.208346,-63.477,-42.969,-63.477,-78.613
1789912771.212198,-56.641,-51.758,-69.336,-70.312
1789912771.216051,-67.871,-53.223,-70.312,-64.941
1789912771.219904,-83.496,-53.711,-67.383,-68.848
1789912771.223756,-86.914,-54.688,-67.871,-72.754
1789912771.227609,-80.078,-53.223,-63.477,-65.430
1789912771.231462,-60.547,-46.875,-64.453,-63.965
1789912771.235314,-55.664,-39.551,-64.941,-56.152
1789912771.239167,-62.500,-36.133,-62.500,-56.152
1789912771.243019,-55.664,-36.133,-61.523,-75.195
1789912771.247665,0.000,-40.039,-67.871,-89.844
1789912771.251518,0.000,-43.945,-71.777,-89.844
1789912771.255371,0.000,-45.410,-63.477,-77.148
1789912771.259224,0.000,-45.898,-57.617,-63.965
1789912771.263078,0.000,-43.945,-58.105,-56.641
1789912771.266931,0.000,-45.898,-58.594,-62.500
1789912771.270784,0.000,-45.898,-54.688,-74.219
1789912771.274637,0.000,-38.086,-60.059,-80.566
1789912771.278491,0.000,-34.180,-67.871,-86.914
1789912771.282344,0.000,-36.621,-67.871,-77.637
1789912771.286197,0.000,-42.480,-67.871,-76.172
1789912771.290050,0.000,-47.852,-71.289,-95.703
1789912771.294636,-74.219,-51.758,-69.824,-96.191
1789912771.298490,-70.801,-50.781,-68.848,-83.984
1789912771.302343,-71.777,-45.410,-62.500,-70.312
1789912771.306197,-68.359,-41.016,-54.688,-74.707
1789912771.310051,-75.195,-39.551,-58.105,-89.355
1789912771.313905,-82.520,-42.969,-62.988,-91.797
1789912771.317758,-76.660,-39.062,-60.059,-88.379
1789912771.321612,-78.613,-35.156,-55.664,-98.633
1789912771.325466,-72.754,-39.551,-53.223,-93.262
1789912771.329320,-79.590,-36.621,-50.781,-74.219
1789912771.333173,-69.336,-36.621,-50.293,-75.195
1789912771.337027,-63.477,-42.480,-49.316,-83.008
1789912771.341554,-75.684,-40.039,-51.270,-82.520
1789912771.345408,-64.453,-39.551,-50.781,-82.520
1789912771.349262,-59.570,-41.016,-53.223,-85.449
1789912771.353117,-76.172,-41.504,-53.223,-74.707
1789912771.356971,-84.961,-42.969,-53.711,-75.195
1789912771.360825,-77.148,-42.969,-55.664,-73.242
1789912771.364679,-77.637,-39.062,-55.664,-68.359
1789912771.368534,-77.148,-37.598,-56.641,-80.566
1789912771.372388,-62.988,-36.133,-55.664,-80.078
1789912771.376242,-69.336,-41.992,-57.129,-80.078
1789912771.380096,-80.566,-47.363,-59.082,-81.543
1789912771.383951,-70.801,-44.922,-56.641,-77.637
1789912771.388558,-88.867,-43.457,-58.594,-87.402
1789912771.392413,-94.727,-38.574,-55.176,-87.402
1789912771.396268,-78.125,-38.086,-49.316,-75.684
1789912771.400123,-69.336,-41.016,-45.410,-72.754
1789912771.403978,-64.941,-41.016,-44.922,-70.801
1789912771.407833,-52.734,-38.086,-46.387,-66.406
1789912771.411687,-40.527,-31.738,-41.016,-69.824
1789912771.415542,-43.457,-31.250,-36.133,-62.500
1789912771.419397,-44.434,-29.785,-34.668,-57.617
1789912771.423252,-50.781,-24.414,-33.203,-62.988
1789912771.427107,-48.828,-21.973,-31.250,-64.453
1789912771.430962,-29.297,-22.461,-28.320,-45.410
1789912771.435391,-16.113,-14.160,-22.461,-26.855
1789912771.439247,-14.160,-9.277,-22.949,-34.180
1789912771.443102,-16.113,-9.766,-20.020,-27.344
1789912771.446957,-20.020,-7.324,-12.207,-20.508
1789912771.450812,-15.137,-9.277,-20.020,-32.227
1789912771.454668,-21.484,0.977,-18.066,-41.016
1789912771.458523,-19.043,5.371,-10.254,-39.062
1789912771.462378,-15.137,-1.953,-7.324,-20.508
1789912771.466233,-0.488,-0.977,-6.348,-7.324
1789912771.470088,-6.836,-0.977,-16.113,-11.230
1789912771.473944,-23.926,-3.418,-16.602,-16.602
1789912771.477799,-10.742,1.953,-11.230,-6.348
1789912771.482175,20.508,13.184,-8.301,3.906
1789912771.486031,20.508,12.207,-11.230,-19.043
1789912771.489887,-15.137,10.254,-10.254,-30.762
1789912771.493742,-3.906,16.602,-10.254,-19.043
1789912771.497598,12.207,15.625,-17.578,-8.301
1789912771.501453,6.836,14.648,-20.996,-16.113
1789912771.505309,-2.441,16.602,-21.484,-14.648
1789912771.509165,9.766,20.020,-16.113,0.488
1789912771.513020,27.832,22.949,-6.836,0.488
1789912771.516876,1.465,17.090,-11.230,-6.836
1789912771.520732,-19.531,7.812,-17.578,-6.836
1789912771.524587,-13.184,3.418,-19.043,-13.672
1789912771.528938,-12.207,1.953,-20.020,-23.438
1789912771.532794,-7.812,-2.930,-20.996,-21.973
1789912771.536649,-14.648,-5.859,-26.855,-25.391
1789912771.540505,-39.062,-3.906,-32.227,-28.320
1789912771.544361,-35.645,-11.230,-34.180,-21.973
1789912771.548217,0.977,-14.160,-41.992,-19.043
1789912771.552073,-9.277,-18.555,-44.922,-19.043
1789912771.555929,-30.762,-17.090,-34.180,-26.855
1789912771.559785,-24.902,-8.789,-37.598,-35.645
1789912771.563641,-25.879,-14.160,-45.410,-34.180
1789912771.567497,-17.578,-15.625,-43.457,-21.973
1789912771.571353,-26.855,-14.160,-44.922,-43.945
1789912771.575685,-41.992,-19.043,-47.852,-61.035
1789912771.579541,-19.531,-14.160,-45.898,-35.156
1789912771.583397,-16.113,-13.672,-46.875,-36.133
1789912771.587254,-19.531,-21.973,-49.316,-42.969
1789912771.591110,-28.809,-25.391,-50.293,-29.785
1789912771.594966,-33.691,-25.391,-51.758,-22.949
1789912771.598822,-5.371,-23.438,-50.293,-16.113
1789912771.602679,-15.137,-23.438,-44.922,-17.578
1789912771.606535,-37.598,-27.832,-47.363,-22.949
1789912771.610391,-24.902,-23.438,-48.828,-25.879
1789912771.614248,-34.180,-25.391,-46.387,-33.691
1789912771.618104,-26.855,-31.738,-51.270,-49.316
1789912771.622695,-20.996,-36.133,-57.617,-51.758
1789912771.626552,-44.434,-40.527,-58.105,-46.387
1789912771.630409,-49.316,-39.551,-57.129,-50.293
1789912771.634265,-31.738,-38.086,-62.988,-46.387
1789912771.638122,-42.969,-33.691,-70.801,-50.781
1789912771.641979,-47.852,-36.133,-74.219,-60.547
1789912771.645836,-39.551,-38.574,-66.895,-61.523
1789912771.649693,-56.641,-41.504,-64.941,-62.988
1789912771.653550,-65.430,-39.062,-64.941,-58.105
1789912771.657406,-45.898,-34.180,-56.641,-53.711
1789912771.661263,-43.457,-40.039,-57.617,-61.523
1789912771.665120,-53.223,-43.457,-56.152,-60.059
1789912771.669669,-62.500,-42.969,-56.152,-53.223
1789912771.673527,-60.547,-44.922,-54.688,-62.500
1789912771.677384,-48.828,-47.852,-54.199,-71.777
1789912771.681241,-46.875,-47.363,-54.199,-67.383
1789912771.685099,-37.109,-42.969,-51.758,-53.711
1789912771.688956,-38.574,-38.574,-54.688,-54.688
1789912771.692813,-56.152,-35.645,-54.688,-57.617
1789912771.696671,-64.453,-36.621,-53.711,-57.617
1789912771.700528,-58.105,-36.133,-57.129,-45.410
1789912771.704385,-56.152,-34.180,-58.105,-44.434
1789912771.708243,-51.758,-34.668,-59.082,-52.246
1789912771.712100,-43.945,-34.180,-55.176,-32.715
1789912771.716586,-51.758,-35.645,-48.340,-23.926
1789912771.720444,-60.059,-34.668,-44.434,-38.574
1789912771.724302,-51.270,-29.297,-43.945,-36.133
1789912771.728159,-35.645,-29.785,-43.945,-33.203
1789912771.732017,-27.344,-31.738,-47.852,-27.832
1789912771.735875,-30.273,-26.855,-53.711,-29.785
1789912771.739733,-43.457,-28.320,-56.641,-49.805
1789912771.743591,-55.176,-31.738,-60.547,-54.688
1789912771.747448,-41.504,-27.344,-60.547,-49.805
1789912771.751306,-21.484,-24.902,-62.012,-38.086
1789912771.755164,-24.414,-27.344,-58.105,-30.273
1789912771.759022,-33.691,-26.367,-54.199,-26.855
1789912771.763515,-24.902,-23.438,-53.223,-39.551
1789912771.767373,-15.625,-22.461,-54.199,-40.039
1789912771.771231,-41.504,-23.438,-57.129,-30.273
1789912771.775089,-61.035,-24.414,-56.641,-32.715
1789912771.778947,-47.852,-26.367,-55.176,-31.738
1789912771.782806,-44.922,-31.250,-52.246,-24.414
1789912771.786664,-52.246,-31.250,-54.688,-32.715
1789912771.790522,-46.387,-31.250,-57.617,-52.246
1789912771.794380,-52.246,-32.715,-58.105,-48.340
1789912771.798238,-59.082,-42.969,-60.547,-54.199
1789912771.802097,-57.129,-41.992,-58.105,-63.965
1789912771.805955,-58.105,-31.738,-58.105,-66.406
1789912771.810352,-52.246,-36.133,-69.336,-59.082
1789912771.814211,-53.223,-39.551,-65.918,-59.570
1789912771.818069,-65.430,-40.039,-62.500,-56.641
1789912771.821928,-81.055,-32.715,-64.453,-39.551
1789912771.825786,-65.918,-35.156,-63.477,-34.180
1789912771.829645,-47.363,-39.551,-61.523,-43.457
1789912771.833503,-54.688,-36.621,-68.359,-54.199
1789912771.837362,-67.871,-39.062,-72.266,-60.547
1789912771.841221,-66.406,-35.156,-64.941,-71.289
1789912771.845079,-62.500,-34.180,-61.035,-71.777
1789912771.848938,-67.871,-38.574,-63.965,-57.617
1789912771.852796,-68.359,-42.480,-64.453,-48.828
1789912771.857143,-72.266,-39.551,0.000,-56.641
1789912771.861002,-76.172,-40.039,0.000,-63.965
1789912771.864861,-72.754,-42.480,0.000,-65.918
1789912771.868720,-61.035,-34.668,0.000,-57.617
1789912771.872579,-55.664,-34.668,0.000,-61.523
1789912771.876438,-52.246,-36.621,0.000,-69.336
1789912771.880297,-44.434,-37.109,0.000,-59.082
1789912771.884156,-59.082,-43.457,0.000,-38.574
1789912771.888015,-75.684,-45.898,0.000,-44.434
1789912771.891873,-70.312,-41.016,0.000,-58.105
1789912771.895732,-61.523,-41.504,0.000,-40.527
1789912771.899591,-51.270,-48.340,0.000,-31.250
1789912771.903919,-68.359,-46.875,-54.199,-42.969
1789912771.907779,-74.219,-44.434,-57.129,-54.688
1789912771.911638,-56.152,-44.922,-59.082,-57.617
1789912771.915497,-46.875,-40.039,-55.176,-59.082
1789912771.919356,-62.012,-38.574,-50.781,-62.500
1789912771.923215,-83.984,-42.480,-50.781,-52.734
1789912771.927075,-76.172,-41.992,-52.246,-47.363
1789912771.930934,-64.941,-41.992,-53.223,-51.270
1789912771.934793,-54.688,-38.574,-51.270,-47.363
1789912771.938652,-43.457,-40.039,-50.781,-52.246
1789912771.942511,-54.688,-43.457,-55.176,-58.105
1789912771.946371,-67.383,-39.551,-51.270,-44.922
1789912771.950956,-51.270,-38.086,-48.340,-49.316
1789912771.954815,-43.945,-37.598,-45.410,-54.199
1789912771.958675,-63.477,-36.133,-40.527,-52.734
1789912771.962535,-59.570,-36.133,-40.039,-56.152
1789912771.966394,-42.969,-37.598,-39.551,-50.781
1789912771.970254,-41.992,-42.969,-42.969,-45.410
1789912771.974114,-53.711,-48.340,-45.898,-39.062
1789912771.977973,-47.852,-42.969,-49.805,-29.785
1789912771.981833,-20.996,-41.992,-49.805,-26.367
1789912771.985693,-41.992,-47.363,-48.340,-28.809
1789912771.989552,-81.543,-47.363,-48.828,-41.992
1789912771.993412,-71.289,-42.969,-46.387,-45.410
1789912771.997973,-48.828,-37.109,0.000,-42.480
1789912772.001833,-48.340,-35.156,0.000,-45.898
1789912772.005693,-40.039,-33.691,0.000,-33.691
1789912772.009554,-43.945,-31.250,0.000,-24.902
1789912772.013414,-57.617,-29.785,0.000,-34.180
1789912772.017274,-52.734,-35.156,0.000,-41.016
1789912772.021134,-43.945,-34.668,0.000,-39.551
1789912772.024994,-60.059,-27.832,0.000,-49.805
1789912772.028854,-56.641,-27.832,0.000,-49.805
1789912772.032715,-33.691,-29.297,0.000,-32.715
1789912772.036575,-40.039,-27.832,0.000,-50.781
1789912772.040435,-56.152,-24.902,0.000,-47.852
1789912772.044929,-40.527,-21.973,-38.574,-35.645
1789912772.048790,-26.855,-19.043,-33.203,-40.527
1789912772.052650,-41.016,-21.973,-35.156,-36.621
1789912772.056511,-39.062,-19.043,-35.645,-35.645
1789912772.060372,-24.414,-12.207,-34.180,-22.461
1789912772.064232,-5.859,-8.301,-25.391,-18.066
1789912772.068093,-18.066,2.441,-14.648,-28.809
1789912772.071953,-22.949,8.301,-13.184,-20.996
1789912772.075814,-10.742,3.906,-7.812,-8.789
1789912772.079674,-6.836,9.277,-6.836,-3.418
1789912772.083535,10.254,17.578,-5.859,5.371
1789912772.087396,8.301,20.508,-6.348,2.930
1789912772.091828,6.348,20.996,-7.812,3.418
1789912772.095689,11.230,20.508,0.000,16.602
1789912772.099550,18.555,24.414,3.906,13.184
1789912772.103411,20.020,21.973,2.441,9.766
1789912772.107272,32.227,24.902,1.953,9.277
1789912772.111133,42.969,30.273,0.000,14.648
1789912772.114994,22.461,28.320,-0.488,10.742
1789912772.118855,18.066,27.344,-1.953,8.301
1789912772.122715,24.902,29.785,0.000,34.180
1789912772.126576,37.109,29.785,1.953,42.969
1789912772.130437,36.621,28.320,-1.465,45.898
1789912772.134298,20.508,28.809,-3.418,37.598
1789912772.138722,20.996,29.297,-9.766,21.484
1789912772.142583,20.508,31.738,-13.184,23.926
1789912772.146445,10.742,32.715,-7.324,17.578
1789912772.150306,28.809,33.203,-8.301,31.738
1789912772.154167,45.898,26.855,-17.090,36.133
1789912772.158029,20.508,21.973,-15.137,22.949
1789912772.161890,20.508,25.879,-17.578,14.648
1789912772.165751,31.738,18.555,-23.438,24.414
1789912772.169613,14.160,15.625,-23.926,40.039
1789912772.173474,12.695,21.484,-23.438,27.344
1789912772.177335,12.207,24.414,-25.391,18.555
1789912772.181196,4.883,19.043,-32.227,11.719
1789912772.185557,14.648,8.789,-37.598,6.836
1789912772.189419,23.926,9.277,-34.668,15.625
1789912772.193280,16.602,8.789,-29.785,16.602
1789912772.197142,2.441,1.953,-32.227,5.859
1789912772.201004,9.277,4.883,-31.250,9.277
1789912772.204865,10.254,3.906,-31.738,6.836
1789912772.208727,0.488,-0.977,-38.574,6.348
1789912772.212589,-3.906,-5.371,-43.457,7.324
1789912772.216450,10.254,-11.719,-45.410,-3.906
1789912772.220312,8.789,-13.672,-45.410,-11.719
1789912772.224173,-21.484,-9.277,-51.270,-19.043
1789912772.228035,-33.203,-5.859,-46.875,-7.324
1789912772.232352,0.000,-5.859,-41.504,17.090
1789912772.236214,0.000,-10.254,-49.805,6.348
1789912772.240076,0.000,-20.020,-57.617,-10.254
1789912772.243938,0.000,-23.438,-56.152,-13.672
1789912772.247800,0.000,-21.973,-53.711,-17.578
1789912772.251662,0.000,-23.438,-54.199,-9.277
1789912772.255524,0.000,-21.973,-55.176,-17.578
1789912772.259386,0.000,-23.926,-59.570,-31.738
1789912772.263248,0.000,-25.391,-60.547,-25.879
1789912772.267110,0.000,-25.391,-59.570,-24.414
1789912772.270972,0.000,-22.949,-59.082,-22.461
1789912772.274833,0.000,-22.949,-60.547,-25.879
1789912772.279127,-19.531,-28.320,-67.383,-40.527
1789912772.282990,-25.879,-30.273,-62.500,-35.645
1789912772.286852,-26.855,-35.156,-60.547,-34.668
1789912772.290714,-25.879,-31.250,-61.523,-36.621
1789912772.294576,-20.508,-19.531,-55.176,-27.344
1789912772.298438,-8.789,-19.043,-52.246,-26.855
1789912772.302300,-16.113,-20.508,-51.758,-24.902
1789912772.306163,-30.762,-23.438,-55.176,-29.297
1789912772.310025,-35.645,-31.738,-60.059,-39.062
1789912772.313887,-27.832,-34.668,-57.617,-34.668
1789912772.317749,-38.086,-31.738,-58.105,-36.621
1789912772.321611,-52.246,-30.273,-60.059,-45.898
1789912772.325851,-31.738,-32.227,-59.570,-39.551
1789912772.329714,-30.762,-34.180,-58.105,-35.156
1789912772.333576,-47.852,-31.738,-50.781,-38.086
1789912772.337439,-41.016,-25.391,-46.875,-52.246
1789912772.341301,-30.273,-24.414,-53.711,-66.895
1789912772.345164,-30.762,-28.809,-54.199,-58.594
1789912772.349026,-30.273,-30.762,-51.270,-45.898
1789912772.352888,-34.180,-25.879,-51.758,-41.504
1789912772.356751,-35.645,-25.879,-53.711,-46.387
1789912772.360613,-20.508,-27.832,-55.664,-55.176
1789912772.364476,-13.672,-24.414,-52.734,-51.758
1789912772.368338,-22.949,-23.438,-46.875,-60.059
1789912772.372838,-38.574,-30.762,-46.387,-73.242
1789912772.376701,-52.734,-31.250,-54.199,-71.777
1789912772.380564,-21.973,-30.762,-57.617,-76.172
1789912772.384427,-11.230,-31.738,-56.641,-70.312
1789912772.388290,-33.691,-32.715,-60.547,-70.312
1789912772.392153,-26.367,-33.203,-58.105,-70.312
1789912772.396015,-29.785,-34.180,-55.664,-63.965
1789912772.399878,-33.691,-36.133,-54.688,-56.152
1789912772.403741,-36.133,-38.086,-53.711,-55.176
1789912772.407604,-39.062,-38.086,-53.223,-62.500
1789912772.411467,-50.293,-34.180,-48.828,-77.637
1789912772.415329,-44.922,-36.133,-56.641,-95.215
1789912772.419783,-35.645,-37.109,-64.453,-104.492
1789912772.423646,-46.387,-35.156,-59.570,-102.051
1789912772.427509,-56.641,-38.086,-61.523,-102.539
1789912772.431372,-69.824,-38.574,-63.965,-103.027
1789912772.435236,-65.430,-37.109,-64.941,-91.797
1789912772.439099,-58.105,-36.133,-62.500,-92.773
1789912772.442962,-82.031,-38.086,-62.988,-88.867
1789912772.446825,-74.707,-41.016,-67.383,-89.355
1789912772.450688,-41.992,-37.109,-65.918,-85.938
1789912772.454551,-49.316,-36.621,-60.059,-78.125
1789912772.458415,-77.637,-38.574,-54.199,-88.379
1789912772.462278,-91.309,-40.527,-56.641,-89.844
1789912772.466768,-79.590,-42.480,-58.594,-82.520
1789912772.470631,-50.781,-42.480,-63.477,-98.633
1789912772.474495,-45.898,-36.621,-68.848,-109.863
1789912772.478358,-69.336,-35.645,-71.777,-120.117
1789912772.482222,-74.219,-34.668,-73.242,-129.395
1789912772.486085,-74.219,-35.645,-71.777,-119.141
1789912772.489949,-55.664,-36.133,-71.777,-116.211
1789912772.493813,-54.199,-32.227,-71.289,-115.723
1789912772.497676,-73.242,-35.156,-69.336,-115.234
1789912772.501540,-61.523,-37.109,-67.383,-109.863
1789912772.505403,-70.312,-36.133,-66.406,-120.117
1789912772.509267,-77.148,-39.551,-67.383,-134.277
1789912772.513653,-66.895,-44.434,-68.848,-138.672
1789912772.517516,-52.734,-46.387,-72.754,-134.766
1789912772.521380,-79.102,-43.457,-70.801,-135.742
1789912772.525244,-103.027,-43.457,-67.871,-135.742
1789912772.529108,-86.914,-44.922,-70.801,-128.906
1789912772.532972,-65.430,-50.293,-74.707,-137.695
1789912772.536836,-58.105,-52.246,-80.078,-146.484
1789912772.540700,-86.914,-44.922,-82.031,-139.160
1789912772.544564,-84.473,-45.410,-76.172,-127.441
1789912772.548428,-62.500,-45.898,-73.730,-124.023
1789912772.552291,-73.730,-44.922,-74.219,-127.930
1789912772.556155,-75.195,-51.270,-72.754,-125.977
1789912772.560490,-48.340,-40.527,-67.871,-114.258
1789912772.564354,-67.383,-29.785,-75.684,-144.531
1789912772.568218,-100.586,-36.133,-85.449,-168.945
1789912772.572083,-91.309,-39.062,-90.820,-167.480
1789912772.575947,-101.562,-42.969,-89.355,-167.969
1789912772.579811,-123.535,-41.016,-86.914,-159.180
1789912772.583675,-104.492,-36.621,-91.797,-164.551
1789912772.587539,-98.145,-31.738,-93.750,-191.406
1789912772.591403,-102.539,-35.156,-100.586,-205.566
1789912772.595268,-107.910,-43.457,-103.027,-215.332
1789912772.599132,-112.305,-47.363,-103.516,-212.402
1789912772.602996,-97.168,-49.316,-105.957,-194.824
1789912772.607310,-113.770,-51.758,-103.027,-201.172
1789912772.611174,-113.281,-50.293,-97.656,-187.012
1789912772.615039,-95.703,-44.922,-96.680,-169.434
1789912772.618903,-92.285,-43.457,-93.262,-178.223
1789912772.622768,-101.074,-43.457,-93.750,-183.594
1789912772.626632,-107.910,-42.969,-92.773,-176.270
1789912772.630497,-87.402,-42.480,-90.820,-168.457
1789912772.634361,-65.430,-43.457,-94.238,-170.898
1789912772.638225,-78.613,-51.270,-99.121,-184.570
1789912772.642090,-103.027,-52.734,-98.145,-184.082
1789912772.645954,-108.398,-50.781,-100.098,-178.223
1789912772.649819,-96.191,-50.781,-98.633,-186.523
1789912772.654099,-78.613,-49.316,-92.285,-184.082
1789912772.657963,-75.195,-56.641,-91.797,-174.805
1789912772.661828,-59.570,-51.270,-90.820,-160.645
1789912772.665693,-51.758,-40.527,-85.449,-159.180
1789912772.669558,-76.172,-48.828,-86.914,-161.133
1789912772.673422,-76.172,-51.758,-81.055,-176.270
1789912772.677287,-65.430,-47.363,-79.102,-168.457
1789912772.681152,-57.617,-45.410,-86.914,-160.156
1789912772.685016,-60.547,-38.574,-79.590,-160.156
1789912772.688881,-72.266,-29.785,-71.289,-167.969
1789912772.692746,-53.711,-25.879,-67.383,-157.715
1789912772.696610,-35.645,-23.438,-62.500,-125.488
1789912772.701133,-43.457,-21.973,-60.547,-136.230
1789912772.704999,-41.992,-14.160,-61.523,-166.992
1789912772.708864,-24.902,-8.789,-56.152,-161.133
1789912772.712729,-17.090,-5.371,-50.781,-138.672
1789912772.716594,-16.602,3.906,-47.852,-125.000
1789912772.720459,-10.254,3.906,-45.898,-125.977
1789912772.724324,-24.414,3.418,-45.410,-124.512
1789912772.728189,-26.367,7.324,-45.410,-117.188
1789912772.732054,-18.555,3.418,-41.992,-124.023
1789912772.735919,-3.906,2.441,-41.992,-127.441
1789912772.739784,5.859,16.602,-41.504,-117.188
1789912772.743649,7.812,18.555,-35.156,-104.492
1789912772.748122,0.000,17.090,-31.738,-87.891
1789912772.751988,0.000,18.555,-31.738,-77.637
1789912772.755853,0.000,17.578,-30.762,-80.078
1789912772.759718,0.000,20.508,-27.832,-79.102
1789912772.763584,0.000,22.949,-25.879,-76.172
1789912772.767449,0.000,20.996,-26.855,-80.566
1789912772.771315,0.000,15.137,-27.344,-87.891
1789912772.775180,0.000,10.742,-30.762,-95.215
1789912772.779046,0.000,5.859,-34.180,-90.332
1789912772.782911,0.000,4.395,-32.715,-73.730
1789912772.786777,0.000,7.324,-37.598,-83.984
1789912772.790642,0.000,5.859,-39.062,-91.309
1789912772.795069,-4.883,2.441,-41.992,-88.867
1789912772.798935,9.277,5.859,-46.875,-94.727
1789912772.802801,19.043,5.371,-39.551,-86.914
1789912772.806666,-25.391,-4.395,-34.180,-108.887
1789912772.810532,-47.852,-13.672,-34.180,-120.117
1789912772.814398,-22.461,-15.137,-26.855,-96.680
1789912772.818264,-11.230,-18.555,-24.414,-91.797
1789912772.822129,-23.926,-26.855,-38.086,-91.309
1789912772.825995,-39.551,-35.156,-44.434,-77.148
1789912772.829861,-20.996,-30.273,-45.410,-75.195
1789912772.833727,7.812,-26.367,-50.293,-82.520
1789912772.837592,-19.043,-27.832,-51.758,-90.820
1789912772.842000,-34.668,-28.320,-52.246,-98.633
1789912772.845866,-20.996,-32.227,-61.035,-89.844
1789912772.849732,-19.531,-38.086,-70.801,-102.051
1789912772.853598,-28.809,-41.992,-69.336,-109.375
1789912772.857464,-46.387,-42.969,-62.500,-98.633
1789912772.861330,-37.109,-43.945,-64.941,-102.051
1789912772.865196,-19.531,-44.434,-70.801,-104.980
1789912772.869062,-29.297,-49.316,-77.637,-104.004
1789912772.872928,-41.504,-44.434,-83.496,-104.492
1789912772.876794,-48.340,-43.457,-79.102,-113.770
1789912772.880660,-40.039,-45.410,-71.289,-110.840
1789912772.884526,-34.668,-39.551,-65.918,-86.426
1789912772.888916,-51.270,-45.410,-64.453,-92.773
1789912772.892783,-35.156,-47.852,-66.895,-106.934
1789912772.896649,-10.742,-38.574,-70.312,-103.027
1789912772.900515,-8.301,-37.109,-72.754,-102.051
1789912772.904382,-25.391,-41.016,-71.289,-101.074
1789912772.908248,-39.551,-42.480,-74.707,-114.746
1789912772.912115,-35.156,-36.133,-75.195,-124.023
1789912772.915981,-14.648,-32.715,-66.406,-112.793
1789912772.919847,-14.160,-38.086,-65.430,-99.609
1789912772.923714,-41.016,-42.969,-67.871,-104.004
1789912772.927580,-30.762,-41.992,-64.941,-103.027
1789912772.931446,-18.066,-41.504,-71.289,-93.750
1789912772.935789,-29.785,-41.016,-80.078,-98.633
1789912772.939656,-49.805,-42.480,-80.078,-118.652
1789912772.943523,-60.059,-58.105,-82.031,-132.324
1789912772.947389,-57.617,-62.500,-80.566,-125.977
1789912772.951256,-40.527,-54.688,-74.219,-123.047
1789912772.955122,-49.316,-51.758,-71.777,-139.648
1789912772.958989,-75.195,-53.223,-75.195,-153.809
1789912772.962856,-67.871,-47.852,-75.684,-138.184
1789912772.966722,-51.758,-41.504,-73.730,-125.977
1789912772.970589,-35.645,-43.457,-69.824,-132.324
1789912772.974456,-35.645,-43.945,-64.453,-125.977
1789912772.978323,-56.152,-47.363,-64.941,-129.883
1789912772.982586,-56.641,-47.852,-62.012,-124.512
1789912772.986453,-39.551,-44.922,-62.500,-108.398
1789912772.990320,-38.086,-41.016,-61.035,-109.375
1789912772.994187,-59.082,-44.922,-59.570,-114.746
1789912772.998054,-54.688,-48.340,-65.918,-109.375
1789912773.001920,-41.016,-43.457,-69.824,-112.793
1789912773.005787,-53.223,-45.410,-67.871,-117.676
1789912773.009654,-60.547,-53.711,-65.430,-117.188
1789912773.013521,-47.363,-54.199,-63.965,-115.723
1789912773.017388,-30.273,-55.176,-65.430,-103.027
1789912773.021255,-53.223,-55.664,-66.406,-98.145
1789912773.025122,-72.266,-50.781,-62.988,-108.398
1789912773.029340,-67.383,-56.641,-62.988,-107.910
1789912773.033207,-54.688,-62.012,-61.035,-103.516
1789912773.037074,-48.828,-61.523,-59.082,-109.375
1789912773.040941,-50.781,-58.105,-61.523,-109.863
1789912773.044809,-52.246,-52.734,-56.641,-123.535
1789912773.048676,-49.805,-53.223,-60.059,-127.441
1789912773.052543,-51.758,-54.688,-66.406,-106.445
1789912773.056410,-61.523,-54.199,-62.988,-110.840
1789912773.060277,-69.824,-56.641,-62.988,-117.676
1789912773.064144,-47.363,-52.246,-63.477,-95.703
1789912773.068011,-25.879,-52.734,-61.035,-97.168
1789912773.071878,-61.035,-48.828,-58.594,-104.492
1789912773.076110,-69.824,-47.852,-61.035,-116.211
1789912773.079977,-71.289,-56.152,-62.500,-125.488
1789912773.083844,-65.918,-57.129,-65.918,-117.676
1789912773.087712,-62.012,-56.641,-68.848,-120.605
1789912773.091579,-67.383,-58.105,-64.941,-131.348
1789912773.095446,-56.152,-52.246,-62.500,-118.164
1789912773.099313,-67.871,-51.270,-63.965,-109.375
1789912773.103181,-72.754,-51.270,-67.871,-115.723
1789912773.107048,-66.406,-50.293,-64.941,-118.164
1789912773.110915,-76.172,-49.316,-62.500,-122.559
1789912773.114783,-77.637,-49.805,-63.477,-109.863
1789912773.118650,-47.852,-44.434,-62.012,-92.285
1789912773.123379,-41.504,-38.574,-63.965,-104.004
1789912773.127247,-80.566,-51.270,-69.336,-125.488
1789912773.131115,-78.613,-53.711,-65.918,-127.441
1789912773.134983,-61.523,-45.410,-62.988,-126.465
1789912773.138850,-71.289,-44.922,-65.918,-128.418
1789912773.142718,-83.496,-48.340,-68.359,-122.559
1789912773.146586,-84.473,-46.875,-69.336,-114.258
1789912773.150454,-67.871,-45.898,-72.266,-125.000
1789912773.154321,-77.148,-47.363,-70.312,-119.141
1789912773.158189,-75.195,-45.898,-66.406,-116.211
1789912773.162057,-61.523,-42.480,-61.523,-120.117
1789912773.165925,-70.312,-47.852,-59.082,-113.281
1789912773.170325,-65.430,-49.805,-67.383,-113.281
1789912773.174193,-78.613,-48.340,-70.801,-125.000
1789912773.178061,-88.867,-53.711,-69.336,-128.418
1789912773.181929,-81.055,-54.688,-69.336,-129.883
1789912773.185797,-82.520,-57.617,-66.895,-125.488
1789912773.189665,-64.941,-59.570,-64.453,-118.164
1789912773.193533,-62.012,-60.547,-63.477,-122.070
1789912773.197401,-65.918,-62.988,-62.500,-117.188
1789912773.201269,-66.406,-62.988,-58.105,-99.121
1789912773.205137,-77.148,-60.547,-53.223,-97.168
1789912773.209005,-79.102,-59.082,-57.617,-108.398
1789912773.212873,-65.918,-57.129,-61.523,-109.375
1789912773.217226,0.000,-55.176,-53.223,-98.633
1789912773.221094,0.000,-53.223,-50.781,-90.820
1789912773.224962,0.000,-47.852,-52.734,-105.957
1789912773.228831,0.000,-46.387,-42.969,-105.469
1789912773.232699,0.000,-51.270,-43.457,-89.844
1789912773.236567,0.000,-55.664,-46.387,-93.262
1789912773.240436,0.000,-52.246,-41.504,-107.910
1789912773.244304,0.000,-47.852,-47.852,-112.305
1789912773.248173,0.000,-47.852,-46.875,-97.656
1789912773.252041,0.000,-49.805,-45.898,-85.449
1789912773.255909,0.000,-49.316,-52.246,-106.934
1789912773.259777,0.000,-46.875,-52.246,-115.234
1789912773.263601,-54.688,-47.363,-54.688,-118.164
1789912773.267469,-52.734,-51.270,-49.316,-114.258
1789912773.271338,-59.082,-50.293,-47.363,-101.074
1789912773.275206,-67.383,-47.363,-47.852,-102.539
1789912773.279074,-70.801,-48.340,-45.410,-98.633
1789912773.282943,-76.172,-47.363,-49.316,-98.633
1789912773.286811,-73.242,-47.363,-51.270,-104.980
1789912773.290679,-58.594,-42.969,-42.480,-93.750
1789912773.294547,-44.922,-34.180,-34.668,-84.473
1789912773.298416,-68.359,-32.715,-32.227,-83.008
1789912773.302284,-76.660,-31.738,-26.367,-69.336
1789912773.306152,-66.895,-35.156,-25.879,-50.293
1789912773.310476,-36.133,-40.527,-30.273,-41.016
1789912773.314345,-41.504,-29.785,-23.438,-43.457
1789912773.318213,-27.344,-15.625,-14.648,-34.668
1789912773.322082,-5.859,-14.160,-14.160,-39.551
1789912773.325950,-14.648,-11.719,-6.836,-47.852
1789912773.329819,-19.531,-12.207,-6.348,-43.457
1789912773.333687,-11.719,-8.789,-7.812,-36.621
1789912773.337556,-4.395,-4.883,-4.883,-30.273
1789912773.341424,-0.977,-3.418,-1.953,-20.996
1789912773.345293,-6.836,6.836,3.418,-19.043
1789912773.349161,5.371,9.766,9.766,-18.066
1789912773.353030,16.602,10.742,6.348,-0.488
1789912773.357590,-3.906,10.742,11.719,-9.277
1789912773.361459,-15.625,10.254,14.160,-19.531
1789912773.365328,0.977,11.719,7.324,-0.977
1789912773.369197,4.395,11.719,14.160,15.625
1789912773.373065,0.000,10.742,19.043,20.996
1789912773.376935,4.395,14.160,16.602,7.812
1789912773.380803,-0.977,12.207,18.555,10.742
1789912773.384672,1.953,3.906,20.996,20.508
1789912773.388541,4.883,-0.488,17.578,3.418
1789912773.392410,-9.766,-0.977,18.066,0.488
1789912773.396279,-4.883,0.488,11.230,-2.441
1789912773.400148,-20.508,-4.395,2.930,-19.531
1789912773.404375,-20.996,-7.324,-3.418,-19.531
1789912773.408244,-13.184,-7.812,-4.883,-20.020
1789912773.412113,-30.273,-10.742,-1.953,-31.738
1789912773.415982,-9.766,-8.301,-9.277,-27.344
1789912773.419851,-13.184,-10.254,-15.137,-30.762
1789912773.423720,-40.527,-18.066,-17.578,-43.945
1789912773.427590,-27.344,-19.531,-24.414,-38.574
1789912773.431459,-19.531,-19.531,-29.297,-20.508
1789912773.435328,-46.875,-25.391,-29.785,-24.902
1789912773.439197,-48.828,-26.367,-28.809,-29.297
1789912773.443066,-32.227,-20.996,-27.344,-28.320
1789912773.446935,-38.574,-21.973,-30.273,-24.414
1789912773.451117,-46.387,-22.949,-32.715,-20.508
1789912773.454986,-40.039,-20.508,-30.273,-35.645
1789912773.458856,-27.344,-20.996,-29.297,-55.664
1789912773.462725,-36.621,-20.020,-29.297,-45.410
1789912773.466594,-23.438,-19.043,-26.367,-33.203
1789912773.470464,-24.414,-26.855,-22.949,-44.922
1789912773.474333,-53.711,-28.320,-29.297,-39.551
1789912773.478202,-54.688,-24.414,-35.645,-36.133
1789912773.482071,-44.922,-29.297,-29.785,-37.109
1789912773.485940,-42.480,-38.574,-31.738,-44.922
1789912773.489810,-40.039,-36.133,-33.691,-54.199
1789912773.493679,-47.852,-34.180,-35.156,-59.082
1789912773.498093,-60.547,-41.016,-41.016,-58.594
1789912773.501963,-65.918,-43.945,-42.480,-47.852
1789912773.505832,-65.918,-46.387,-39.551,-50.293
1789912773.509702,-60.059,-47.363,-39.551,-60.059
1789912773.513572,-53.711,-45.410,-41.504,-63.477
1789912773.517441,-52.246,-47.363,-43.457,-59.082
1789912773.521311,-61.035,-48.340,-45.410,-60.547
1789912773.525180,-64.453,-51.758,-40.039,-65.430
1789912773.529050,-63.477,-49.316,-41.504,-50.293
1789912773.532919,-60.059,-47.852,-48.828,-42.480
1789912773.536789,-55.664,-48.340,-48.340,-57.129
1789912773.540658,-70.312,-43.945,-46.875,-65.918
1789912773.545049,-68.848,-45.898,-41.504,-65.918
1789912773.548919,-64.453,-45.410,-40.039,-52.246
1789912773.552788,-60.059,-47.852,-45.898,-48.340
1789912773.556659,-70.801,-47.363,-43.457,-46.875
1789912773.560528,-69.336,-41.992,-42.480,-57.617
1789912773.564398,-64.453,-37.109,-39.062,-55.176
1789912773.568268,-44.922,-39.062,-38.086,-43.945
1789912773.572138,-42.480,-48.340,-46.387,-46.875
1789912773.576008,-57.129,-44.434,-48.340,-33.203
1789912773.579877,-41.016,-42.480,-40.039,-29.297
1789912773.583747,-49.316,-46.875,-40.527,-34.668
1789912773.587617,-51.270,-42.969,-37.598,-37.109
1789912773.591995,-53.223,-40.039,-30.273,-34.180
1789912773.595866,-52.734,-42.480,-35.645,-26.855
1789912773.599736,-49.316,-43.457,-44.922,-32.227
1789912773.603606,-54.688,-40.527,-41.016,-33.203
1789912773.607476,-54.688,-37.109,-33.203,-35.645
1789912773.611346,-61.523,-37.598,-22.461,-36.133
1789912773.615216,-68.359,-39.062,-26.855,-32.227
1789912773.619086,-51.758,-45.410,-31.738,-39.551
1789912773.622956,-32.715,-51.758,-23.438,-28.809
1789912773.626826,-53.711,-44.922,-16.113,-11.230
1789912773.630697,-64.941,-41.016,-19.043,-27.344
1789912773.634567,-40.527,-40.527,-26.367,-24.414
1789912773.638881,-53.223,-37.109,-26.855,-25.391
1789912773.642751,-51.758,-32.715,-25.391,-52.246
1789912773.646622,-33.691,-32.715,-24.414,-48.340
1789912773.650492,-34.668,-41.504,-29.785,-26.367
1789912773.654362,-48.340,-44.922,-34.180,-26.855
1789912773.658233,-70.312,-47.363,-35.645,-39.551
1789912773.662103,-74.707,-48.340,-38.086,-37.598
1789912773.665973,-68.848,-43.945,-41.016,-30.762
1789912773.669844,-46.875,-46.387,-39.551,-24.902
1789912773.673714,-46.875,-46.387,-39.062,-30.762
1789912773.677584,-73.242,-44.434,-36.621,-32.227
1789912773.681455,-81.055,-50.293,-35.156,-22.461
1789912773.685730,-61.035,-48.340,-41.016,-9.766
1789912773.689601,-71.777,-41.992,-46.387,-29.297
1789912773.693471,-75.684,-40.039,-41.504,-36.621
1789912773.697342,-60.547,-42.480,-35.156,-33.691
1789912773.701213,-71.289,-45.898,-43.945,-34.180
1789912773.705083,-68.359,-42.969,-41.992,-26.855
1789912773.708954,-62.012,-41.992,-33.203,-39.551
1789912773.712824,-62.988,-44.434,-32.715,-27.344
1789912773.716695,-51.758,-46.875,-29.297,-20.020
1789912773.720565,-62.012,-44.922,-32.715,-22.949
1789912773.724436,-80.078,-43.945,-31.738,-13.672
1789912773.728306,-88.379,-43.457,-30.762,-17.090
1789912773.732547,-62.012,-41.992,-36.621,-21.484
1789912773.736417,-56.152,-43.457,-37.598,-12.695
1789912773.740288,-86.914,-41.016,-37.598,-18.555
1789912773.744159,-87.402,-34.668,-32.715,-28.809
1789912773.748029,-74.219,-34.180,-33.691,-19.043
1789912773.751900,-75.684,-32.227,-34.180,-0.977
1789912773.755771,-77.637,-31.250,-36.133,7.324
1789912773.759642,-97.656,-32.715,-35.645,-7.324
1789912773.763512,-88.867,-38.574,-39.062,-13.184
1789912773.767383,-67.383,-35.645,-35.156,2.930
1789912773.771254,-102.051,-31.738,-35.156,1.465
1789912773.775125,-112.793,-35.645,-36.133,-9.277
1789912773.779598,-105.957,-34.180,-26.367,-3.906
1789912773.783469,-104.492,-34.668,-31.250,-2.441
1789912773.787340,-99.121,-35.645,-36.133,-8.789
1789912773.791211,-105.957,-38.574,-33.691,-22.461
1789912773.795082,-108.887,-40.527,-36.133,-40.039
1789912773.798953,-107.910,-38.086,-37.109,-37.109
1789912773.802824,-105.469,-36.621,-33.691,-10.742
1789912773.806695,-89.844,-33.203,-27.832,-0.977
1789912773.810566,-88.379,-31.738,-21.484,-13.184
1789912773.814437,-102.539,-27.832,-20.508,-11.719
1789912773.818308,-93.262,-26.855,-21.973,-20.996
1789912773.822179,-93.262,-28.809,-27.832,-42.969
1789912773.826358,-129.395,-28.809,-30.762,-46.875
1789912773.830229,-132.812,-29.785,-28.320,-41.016
1789912773.834100,-107.910,-28.809,-26.855,-25.391
1789912773.837972,-97.656,-30.273,-20.996,-22.949
1789912773.841843,-109.863,-31.738,-21.973,-40.039
1789912773.845714,-101.562,-28.320,-24.414,-29.297
1789912773.849585,-84.961,-22.949,-19.531,-15.137
1789912773.853456,-100.586,-18.555,-20.020,-30.273
1789912773.857327,-107.910,-20.996,-19.531,-53.711
1789912773.861199,-103.027,-17.090,-18.555,-52.734
1789912773.865070,-117.676,-11.719,-13.672,-34.180
1789912773.868941,-120.117,-20.020,-12.207,-39.062
1789912773.873596,-114.746,-20.508,-16.113,-52.246
1789912773.877468,-95.703,-12.695,-12.207,-51.270
1789912773.881340,-89.844,-20.996,-14.160,-58.105
1789912773.885211,-103.027,-23.438,-14.160,-61.523
1789912773.889083,-101.074,-15.625,-13.184,-48.828
1789912773.892954,-104.980,-24.902,-12.207,-53.711
1789912773.896826,-100.586,-27.344,-15.137,-57.129
1789912773.900697,-86.426,-21.973,-11.719,-56.641
1789912773.904569,-83.008,-18.555,-0.488,-49.805
1789912773.908441,-90.332,-16.113,-2.930,-55.176
1789912773.912312,-93.262,-15.625,-1.465,-51.270
1789912773.916184,-83.984,-14.648,5.371,-35.645
1789912773.920540,-91.797,-7.812,6.836,-34.668
1789912773.924412,-87.402,0.488,9.766,-30.273
1789912773.928284,-54.199,7.324,20.996,-37.598
1789912773.932156,-57.617,6.836,19.531,-52.734
1789912773.936027,-55.176,6.348,14.648,-34.180
1789912773.939899,-42.969,17.578,15.625,-12.207
1789912773.943771,-71.777,18.066,19.531,-18.555
1789912773.947643,-57.129,17.578,19.043,-25.391
1789912773.951515,-12.695,25.879,27.344,-4.395
1789912773.955386,-14.160,29.785,33.203,0.000
1789912773.959258,-8.301,37.109,33.691,-10.254
1789912773.963130,4.883,42.480,40.527,12.695
1789912773.967446,0.000,40.527,39.551,22.461
1789912773.971318,0.000,43.945,33.691,17.090
1789912773.975190,0.000,52.734,40.527,11.230
1789912773.979062,0.000,54.199,45.410,13.184
1789912773.982934,0.000,46.387,37.109,12.695
1789912773.986806,0.000,42.969,37.109,1.953
1789912773.990678,0.000,41.016,37.598,-2.441
1789912773.994550,0.000,36.621,33.691,-4.883
1789912773.998422,0.000,38.574,33.203,4.883
1789912774.002294,0.000,41.016,29.785,8.789
1789912774.006166,0.000,33.691,27.344,-4.395
1789912774.010038,0.000,27.344,22.949,-7.812
1789912774.014832,-36.621,23.438,14.160,-13.184
1789912774.018704,-29.297,21.484,9.277,-4.395
1789912774.022577,-14.160,25.879,14.648,-0.488
1789912774.026449,-43.457,26.855,17.578,-20.508
1789912774.030322,-51.758,24.414,12.207,-15.137
1789912774.034194,-16.602,23.926,7.324,-0.488
1789912774.038067,-14.648,13.184,5.371,-12.695
1789912774.041939,-24.902,11.230,2.441,-14.160
1789912774.045812,-49.316,16.602,6.836,-1.465
1789912774.049684,-49.805,8.301,-2.930,-13.672
1789912774.053557,-46.875,7.324,-14.648,-28.320
1789912774.057429,-51.270,2.441,-15.137,-33.691
1789912774.061660,-73.242,-1.465,-10.742,-21.973
1789912774.065533,-69.336,3.906,-10.254,-15.625
1789912774.069405,-39.062,-6.836,-23.926,-16.602
1789912774.073278,-83.496,-13.184,-28.320,-29.297
1789912774.077151,-122.070,-5.859,-30.273,-39.062
1789912774.081023,-101.074,-7.812,-33.691,-23.438
1789912774.084896,-73.730,-15.625,-24.414,-23.926
1789912774.088769,-71.289,-16.602,-20.996,-38.086
1789912774.092641,-89.355,-8.301,-23.926,-39.551
1789912774.096514,-89.355,-6.348,-23.926,-31.738
1789912774.100387,-93.262,-9.277,-24.414,-30.273
1789912774.104259,-95.215,-13.672,-35.645,-40.527
1789912774.108713,-89.844,-20.996,-39.062,-57.129
1789912774.112586,-115.234,-25.391,-37.598,-57.129
1789912774.116459,-124.512,-24.414,-42.969,-42.969
1789912774.120332,-130.371,-27.832,-41.992,-44.434
1789912774.124205,-145.020,-24.902,-41.504,-58.105
1789912774.128078,-171.875,-18.066,-39.551,-55.664
1789912774.131951,-215.820,-23.438,-40.527,-47.363
1789912774.135824,-204.590,-28.320,-48.340,-42.480
1789912774.139697,-202.637,-27.344,-48.340,-59.082
1789912774.143570,-237.793,-25.879,-44.434,-69.824
1789912774.147443,-236.816,-28.320,-42.969,-63.965
1789912774.151316,-225.098,-28.809,-45.898,-62.988
1789912774.155746,-240.234,-22.461,-42.480,-53.223
1789912774.159620,-265.625,-21.973,-33.691,-51.758
1789912774.163493,-258.301,-26.855,-39.062,-61.523
1789912774.167366,-237.305,-22.461,-40.527,-49.805
1789912774.171239,-215.820,-20.508,-38.574,-43.945
1789912774.175113,-232.422,-20.996,-33.203,-48.828
1789912774.178986,-263.184,-17.578,-34.180,-49.316
1789912774.182859,-242.676,-13.672,-39.062,-63.477
1789912774.186732,-219.238,-12.207,-32.715,-70.312
1789912774.190606,-208.008,-12.207,-37.109,-62.500
1789912774.194479,-236.816,-10.742,-40.527,-64.453
1789912774.198352,-265.137,-9.277,-41.016,-58.105
1789912774.203222,-253.906,-11.719,-42.480,-39.062
1789912774.207096,-246.094,-14.648,-38.574,-39.551
1789912774.210970,-249.512,-17.578,-36.621,-38.574
1789912774.214844,-228.027,-17.090,-34.180,-45.898
1789912774.218717,-199.707,-11.719,-27.832,-38.574
1789912774.222591,-208.496,-10.742,-27.832,-41.504
1789912774.226465,-205.566,-9.766,-32.715,-49.316
1789912774.230338,-178.223,-6.348,-28.320,-38.086
1789912774.234212,-192.383,-7.812,-22.949,-42.969
1789912774.238086,-194.824,-10.254,-34.668,-31.738
1789912774.241959,-191.895,-9.766,-38.086,-22.949
1789912774.245833,-193.359,-10.742,-31.250,-23.926
1789912774.250181,-180.176,-14.648,-36.133,0.000
1789912774.254055,-171.387,-14.648,-41.504,0.000
1789912774.257929,-154.785,-10.742,-45.898,0.000
1789912774.261803,-162.109,-8.301,-39.551,0.000
1789912774.265677,-157.715,-8.301,-32.227,0.000
1789912774.269551,-148.438,-14.160,-38.086,0.000
1789912774.273425,-143.555,-18.066,-46.387,0.000
1789912774.277299,-151.367,-16.602,-41.016,0.000
1789912774.281173,-167.480,-20.996,-33.691,0.000
1789912774.285046,-156.250,-24.414,-43.945,0.000
1789912774.288920,-159.668,-22.461,-40.039,0.000
1789912774.292794,-147.461,-20.020,-34.180,0.000
1789912774.297117,0.000,-22.949,-37.109,-38.086
1789912774.300992,0.000,-20.508,-35.645,-53.223
1789912774.304866,0.000,-18.555,-37.109,-47.852
1789912774.308740,0.000,-20.508,-39.062,-37.109
1789912774.312614,0.000,-22.461,-35.645,-47.363
1789912774.316488,0.000,-27.344,-33.691,-31.250
1789912774.320362,0.000,-34.668,-37.598,-21.484
1789912774.324236,0.000,-34.668,-41.992,-37.109
1789912774.328111,0.000,-31.738,-39.551,-33.203
1789912774.331985,0.000,-36.621,-38.574,-35.156
1789912774.335859,0.000,-39.551,-43.457,-42.480
1789912774.339733,0.000,-41.504,-40.527,-34.180
1789912774.344022,-172.363,-41.016,-33.691,-16.113
1789912774.347896,-173.340,-40.039,-36.133,-27.344
1789912774.351770,-161.621,-38.574,-45.898,-48.340
1789912774.355645,-164.062,-34.180,-43.457,-31.250
1789912774.359519,-157.715,-32.227,-40.527,-37.109
1789912774.363394,-139.160,-32.715,-39.062,-44.922
1789912774.367268,-153.809,-30.762,-40.039,-30.273
1789912774.371142,-154.785,-25.879,-41.504,-22.461
1789912774.375016,-159.180,-26.855,-42.480,-27.344
1789912774.378891,-168.457,-29.785,-39.062,-35.156
1789912774.382765,-152.832,-32.715,-38.574,-49.316
1789912774.386640,-149.414,-38.086,-42.480,-47.363
1789912774.390898,0.000,-39.551,-44.922,-27.832
1789912774.394772,0.000,-40.527,-47.363,-20.996
1789912774.398647,0.000,-42.480,-45.410,-38.086
1789912774.402521,0.000,-42.480,-48.828,-39.551
1789912774.406396,0.000,-37.109,-40.527,-36.133
1789912774.410270,0.000,-29.785,-35.645,-55.176
1789912774.414145,0.000,-31.738,-41.992,-47.363
1789912774.418020,0.000,-34.668,-41.504,-36.621
1789912774.421894,0.000,-36.621,-41.016,-48.828
1789912774.425768,0.000,-37.109,-44.434,-63.477
1789912774.429643,0.000,-32.227,-42.969,-53.223
1789912774.433517,0.000,-32.227,-38.086,-37.109
1789912774.437257,-172.363,-33.691,-38.574,-32.715
1789912774.441132,-208.008,-28.809,-33.691,-30.273
1789912774.445006,-203.613,-30.762,-37.109,-48.340
1789912774.448880,-181.641,-36.621,-37.109,-40.527
1789912774.452755,-179.199,-37.109,-37.109,-20.508
1789912774.456630,-190.430,-37.109,-35.645,-37.598
1789912774.460504,-173.340,-37.109,-30.762,-50.293
1789912774.464378,-163.574,-35.645,-35.645,-32.715
1789912774.468253,-178.223,-35.156,-39.062,-28.320
1789912774.472127,-206.055,-38.086,-37.598,-38.574
1789912774.476002,-199.219,-40.527,-38.086,-47.852
1789912774.479876,-181.152,-39.062,-41.992,-49.316
1789912774.484540,-140.625,-38.086,-36.621,-40.527
1789912774.488415,-163.086,-37.109,-33.203,-38.086
1789912774.492290,-171.875,-40.527,-37.109,-53.223
1789912774.496165,-183.105,-45.410,-39.062,-62.012
1789912774.500040,-168.457,-37.598,-36.133,-45.410
1789912774.503914,-137.695,-37.109,-39.062,-29.297
1789912774.507789,-163.574,-39.062,-39.551,-34.180
1789912774.511664,-193.848,-35.156,-35.156,-62.500
1789912774.515539,-153.320,-30.273,-32.227,-53.223
1789912774.519414,-129.883,-25.879,-22.949,-27.344
1789912774.523288,-154.785,-31.738,-21.973,-37.598
1789912774.527163,-145.020,-29.297,-25.391,-40.527
1789912774.531306,-127.930,-29.785,-26.855,-54.199
1789912774.535181,-146.484,-27.344,-23.438,-52.734
1789912774.539056,-149.414,-18.555,-18.066,-32.227
1789912774.542930,-130.371,-8.789,-12.695,-18.555
1789912774.546805,-111.328,-10.254,-8.789,-23.926
1789912774.550680,-105.957,-15.137,-11.230,-35.156
1789912774.554555,-108.398,-11.719,-12.695,-11.230
1789912774.558430,-96.191,-2.441,-5.371,-4.883
1789912774.562305,-87.402,0.977,-1.953,-2.930
1789912774.566180,-86.914,0.000,-4.395,3.418
1789912774.570055,-73.242,6.836,0.977,10.742
1789912774.573930,-73.730,13.672,8.789,10.254
1789912774.578292,-71.289,15.625,8.301,20.508
1789912774.582167,-59.082,14.648,9.766,42.480
1789912774.586042,-39.551,19.043,14.648,33.203
1789912774.589918,-20.996,23.926,9.277,19.531
1789912774.593793,-39.062,20.996,10.742,14.648
1789912774.597668,-62.500,20.020,8.301,20.020
1789912774.601543,-65.918,19.043,2.441,31.738
1789912774.605418,-71.289,19.531,2.441,37.598
1789912774.609293,-56.152,20.996,-0.488,38.574
1789912774.613169,-29.297,16.113,1.953,30.762
1789912774.617044,-42.969,19.043,0.977,17.090
1789912774.620919,-44.922,29.785,-1.465,17.090
1789912774.625238,-40.527,30.273,-0.977,13.672
1789912774.629113,-70.312,28.320,1.465,6.348
1789912774.632989,-71.289,20.508,-4.395,22.461
1789912774.636864,-45.898,15.137,-7.812,30.762
1789912774.640740,-48.340,14.160,-10.254,21.973
1789912774.644615,-54.688,7.812,-15.625,6.348
1789912774.648490,-61.523,7.812,-10.742,-13.184
1789912774.652366,-71.777,10.254,-12.695,-17.578
1789912774.656241,-64.941,8.301,-12.207,-17.090
1789912774.660116,-70.801,6.348,-11.719,-35.156
1789912774.663992,-83.984,0.000,-17.090,-53.711
1789912774.667867,-98.633,-5.859,-21.973,-38.086
1789912774.672150,-104.492,-7.812,-25.391,-27.832
1789912774.676025,-99.609,-6.836,-25.879,-46.387
1789912774.679901,-88.379,1.953,-26.855,-44.922
1789912774.683776,-83.008,-2.930,-31.250,-30.273
1789912774.687652,-86.914,-13.672,-32.227,-20.996
1789912774.691527,-102.539,-13.672,-35.645,-32.715
1789912774.695403,-91.309,-5.859,-31.250,-45.898
1789912774.699279,-89.844,-4.395,-30.273,-42.969
1789912774.703154,-106.934,-10.742,-37.598,-39.551
1789912774.707030,-111.816,-17.578,-41.992,-20.020
1789912774.710905,-135.742,-24.902,-52.246,-51.758
1789912774.714781,-137.207,-21.973,-56.152,-75.684
1789912774.719027,-141.113,-26.367,-56.152,-59.570
1789912774.722903,-141.113,-27.832,-51.270,-49.805
1789912774.726778,-153.320,-20.996,-43.945,-42.480
1789912774.730654,-176.758,-25.879,-47.363,-47.363
1789912774.734530,-175.781,-24.414,-51.270,-43.945
1789912774.738405,-170.410,-23.438,-50.781,-37.109
1789912774.742281,-156.250,-21.484,-54.688,-47.852
1789912774.746157,-156.738,-20.020,-51.758,-57.129
1789912774.750033,-158.203,-24.414,-53.223,-39.551
1789912774.753908,-136.719,-18.066,-58.594,-32.227
1789912774.757784,-130.859,-16.113,-58.594,-43.457
1789912774.761660,-142.090,-22.461,-53.223,-32.715
1789912774.765890,0.000,-17.090,-45.898,-31.250
1789912774.769766,0.000,-11.719,-46.875,-33.203
1789912774.773642,0.000,-10.254,-49.805,-22.949
1789912774.777518,0.000,-11.719,-47.852,-32.715
1789912774.781393,0.000,-14.160,-46.875,-36.133
1789912774.785269,0.000,-8.789,-49.805,-17.578
1789912774.789145,0.000,-13.672,-57.617,-34.668
1789912774.793021,0.000,-14.648,-53.223,-43.945
1789912774.796897,0.000,-13.184,-50.781,-30.273
1789912774.800773,0.000,-10.742,-49.805,-29.297
1789912774.804649,0.000,-2.441,-40.527,-19.531
1789912774.808525,0.000,-1.953,-37.598,-14.160
1789912774.812729,-177.734,0.488,-37.598,-25.879
1789912774.816605,-178.223,-0.977,-35.156,-20.020
1789912774.820481,-169.922,0.000,-36.133,-10.254
1789912774.824357,-166.016,3.906,-41.016,-20.020
1789912774.828233,-166.992,7.324,-35.645,-21.973
1789912774.832109,-180.664,9.766,-36.621,-16.602
1789912774.835985,-176.270,14.160,-33.691,-5.859
1789912774.839861,-149.902,14.648,-29.297,20.996
1789912774.843737,-133.789,18.555,-31.738,7.812
1789912774.847613,-150.391,20.508,-29.297,-13.672
1789912774.851489,-174.316,15.137,-26.855,15.625
1789912774.855365,-161.621,16.113,-29.297,30.762
1789912774.859534,0.000,20.020,-32.227,29.785
1789912774.863410,0.000,21.484,-30.273,19.531
1789912774.867286,0.000,26.367,-30.762,22.461
1789912774.871163,0.000,27.832,-31.250,25.879
1789912774.875039,0.000,25.879,-29.297,21.484
1789912774.878915,0.000,30.762,-25.391,22.949
1789912774.882791,0.000,35.645,-23.926,37.109
1789912774.886667,0.000,39.062,-19.531,27.832
1789912774.890543,0.000,38.086,-21.484,0.977
1789912774.894420,0.000,32.227,-26.367,-5.371
1789912774.898296,0.000,26.367,-30.762,-26.367
1789912774.902172,0.000,25.879,-39.062,-30.273
1789912774.906829,-126.465,24.414,-44.434,-52.734
1789912774.910705,-143.555,22.949,-35.156,-39.551
1789912774.914582,-129.883,22.461,-36.133,-36.621
1789912774.918458,-119.629,25.391,-39.551,-46.387
1789912774.922335,-147.461,23.438,-38.086,-37.109
1789912774.926211,-158.203,20.996,-37.598,-24.902
1789912774.930088,-138.184,20.020,-29.785,-41.992
1789912774.933964,-127.930,20.508,-32.715,-64.941
1789912774.937841,-147.949,19.043,-38.086,-71.289
1789912774.941717,-155.273,21.484,-40.527,-68.359
1789912774.945594,-126.465,21.973,-41.992,-63.477
1789912774.949471,-130.371,12.695,-46.387,-59.082
1789912774.953624,-146.973,10.742,-53.223,0.000
1789912774.957500,-147.461,9.277,-51.758,0.000
1789912774.961377,-148.926,2.441,-42.480,0.000
1789912774.965254,-151.855,-2.930,-43.457,0.000
1789912774.969131,-140.625,0.488,-52.246,0.000
1789912774.973007,-129.883,8.301,-48.340,0.000
1789912774.976884,-132.324,8.301,-41.992,0.000
1789912774.980760,-124.512,1.953,-38.574,0.000
1789912774.984637,-103.516,4.395,-41.992,0.000
1789912774.988513,-115.723,4.395,-43.457,0.000
1789912774.992390,-126.465,-2.930,-38.086,0.000
1789912774.996267,-115.234,-2.930,-39.062,0.000
1789912775.000560,-118.164,0.977,-41.992,-66.406
1789912775.004436,-116.699,-5.371,-37.598,-64.941
1789912775.008313,-124.023,-3.906,-36.621,-52.246
1789912775.012190,-120.117,-3.418,-33.203,-42.480
1789912775.016067,-88.867,-7.324,-31.738,-45.898
1789912775.019944,-93.262,-7.812,-36.133,-45.898
1789912775.023821,-107.910,-6.836,-40.039,-36.621
1789912775.027697,-125.000,-8.789,-41.504,-57.617
1789912775.031574,-126.465,-8.301,-43.457,-69.824
1789912775.035451,-129.395,-7.812,-39.551,-55.176
1789912775.039328,-127.930,-9.277,-30.762,-32.715
1789912775.043205,-99.121,-3.906,-35.645,-35.156
1789912775.047694,-113.281,0.000,-40.039,-38.086
1789912775.051571,-130.371,-3.906,-38.086,-30.273
1789912775.055448,-116.211,-4.883,-40.039,-46.387
1789912775.059325,-108.887,-4.883,-36.133,-66.895
1789912775.063202,-114.746,-5.371,-34.668,-45.410
1789912775.067079,-110.840,-4.883,-39.062,-38.086
1789912775.070956,-101.562,-12.207,-37.109,-51.758
1789912775.074833,-119.629,-15.625,-33.691,-51.270
1789912775.078711,-139.160,-12.207,-39.062,-42.969
1789912775.082587,-146.484,-11.719,-40.039,-30.762
1789912775.086465,-126.465,-10.742,-39.551,-27.832
1789912775.090342,-108.398,-10.742,-44.922,-40.527
1789912775.094578,-106.934,-9.766,-43.945,-53.223
1789912775.098455,-105.469,-4.883,-36.621,-40.039
1789912775.102332,-97.168,-0.977,-31.738,-17.090
1789912775.106210,-93.262,-1.953,-30.273,-13.672
1789912775.110087,-110.840,-9.766,-32.227,-34.668
1789912775.113964,-125.977,-18.066,-32.227,-34.668
1789912775.117841,-117.188,-21.973,-34.668,-36.133
1789912775.121719,-117.188,-24.902,-37.109,-42.969
1789912775.125596,-121.582,-22.461,-35.156,-35.645
1789912775.129473,-126.953,-19.531,-33.691,-39.062
1789912775.133350,-119.629,-21.484,-32.715,-47.852
1789912775.137228,-112.793,-22.949,-25.879,-37.598
1789912775.141441,-119.141,-23.926,-22.461,-23.926
1789912775.145318,-116.211,-21.973,-21.484,-25.391
1789912775.149196,-112.305,-24.902,-24.414,-29.785
1789912775.153073,-114.746,-26.367,-30.273,-35.645
1789912775.156950,-126.953,-24.414,-26.367,-36.621
1789912775.160828,-118.164,-28.320,-27.344,-38.086
1789912775.164705,-131.348,-28.809,-29.785,-57.129
1789912775.168582,-140.625,-19.531,-27.832,-48.340
1789912775.172460,-97.168,-12.207,-32.227,-13.184
1789912775.176337,-102.539,-16.602,-22.461,-2.930
1789912775.180215,-111.328,-16.602,-15.137,-13.672
1789912775.184092,-92.773,-15.137,-18.066,-9.277
1789912775.188270,-82.520,-14.648,-19.043,-7.324
1789912775.192148,-74.219,-4.883,-12.207,0.488
1789912775.196025,-85.449,-1.953,-5.859,8.789
1789912775.199903,-73.242,1.953,-5.859,15.625
1789912775.203780,-47.363,9.277,1.953,26.367
1789912775.207658,-39.551,10.254,2.441,37.109
1789912775.211535,-27.832,14.160,3.906,39.062
1789912775.215413,-49.316,18.066,4.883,50.781
1789912775.219290,-71.289,20.996,6.348,54.199
1789912775.223168,-41.992,25.879,5.859,50.293
1789912775.227046,-23.438,27.832,-3.906,36.621
1789912775.230923,-48.340,26.855,-5.371,31.738
1789912775.235289,0.000,30.273,-5.859,45.410
1789912775.239167,0.000,34.180,-11.230,48.828
1789912775.243045,0.000,33.691,-12.695,52.734
1789912775.246922,0.000,34.180,-6.348,58.594
1789912775.250800,0.000,31.738,-10.254,60.059
1789912775.254678,0.000,28.809,-7.812,67.383
1789912775.258556,0.000,32.227,2.441,68.359
1789912775.262434,0.000,34.668,-0.488,63.477
1789912775.266311,0.000,34.180,-7.812,47.852
1789912775.270189,0.000,32.227,-13.184,33.691
1789912775.274067,0.000,32.715,-18.555,50.293
1789912775.277944,0.000,31.738,-19.531,48.340
1789912775.282281,-66.406,22.461,-19.531,47.852
1789912775.286159,-50.781,19.043,-26.367,43.945
1789912775.290037,-18.555,24.414,-25.879,42.969
1789912775.293915,-20.020,22.949,-29.785,53.223
1789912775.297793,-51.758,20.996,-36.621,41.016
1789912775.301671,-67.383,8.301,-30.273,30.273
1789912775.305548,-43.945,-2.930,-36.621,37.109
1789912775.309426,-45.410,-2.441,-48.340,29.297
1789912775.313304,-75.684,1.953,-46.387,11.230
1789912775.317182,-81.543,0.488,-49.805,6.348
1789912775.321060,-63.965,-1.465,-51.758,24.902
1789912775.324938,-55.664,-2.441,-51.758,23.438
1789912775.329030,-80.566,-11.230,-54.688,-7.812
1789912775.332908,-88.867,-19.531,-56.641,-8.789
1789912775.336786,-88.379,-18.066,-58.594,3.906
1789912775.340664,-85.449,-16.602,-70.801,14.160
1789912775.344542,-81.055,-23.926,-71.777,18.555
1789912775.348420,-104.980,-27.832,-73.242,-10.742
1789912775.352298,-107.422,-31.250,-81.543,-25.391
1789912775.356176,-90.820,-36.133,-80.566,-16.113
1789912775.360054,-92.773,-35.645,-85.449,-35.156
1789912775.363932,-116.211,-40.039,-88.379,-37.109
1789912775.367810,-115.234,-39.062,-83.496,-19.043
1789912775.371688,-98.145,-33.203,-83.008,-25.391
1789912775.375975,-98.145,-41.504,-83.496,-28.809
1789912775.379853,-121.094,-47.852,-85.938,-34.180
1789912775.383731,-130.859,-46.875,-88.379,-32.715
1789912775.387609,-105.957,-46.387,-83.496,-29.297
1789912775.391488,-97.656,-50.293,-80.078,-34.180
1789912775.395366,-108.398,-48.828,-80.078,-33.203
1789912775.399244,-123.047,-45.898,-83.008,-38.086
1789912775.403122,-120.605,-47.852,-88.379,-40.527
1789912775.407001,-97.656,-45.410,-83.496,-30.273
1789912775.410879,-107.422,-45.410,-83.008,-29.785
1789912775.414757,-116.211,-49.805,-93.750,-41.016
1789912775.418635,-111.328,-44.434,-88.867,-42.969
1789912775.422892,-101.074,-40.039,-83.008,-44.434
1789912775.426771,-118.652,-43.945,-81.055,-50.293
1789912775.430649,-142.090,-49.805,-81.543,-51.270
1789912775.434527,-121.582,-53.223,-92.285,-46.875
1789912775.438406,-117.188,-58.105,-85.449,-52.246
1789912775.442284,-134.766,-64.941,-84.473,-57.617
1789912775.446162,-121.094,-62.500,-95.215,-59.082
1789912775.450041,-112.305,-59.082,-99.121,-64.453
1789912775.453919,-124.023,-55.664,-100.586,-40.527
1789912775.457797,-123.535,-58.594,-85.449,-41.992
1789912775.461676,-119.629,-57.129,-76.172,-63.965
1789912775.465554,-114.258,-55.176,-82.520,-49.316
1789912775.469803,0.000,-51.270,0.000,0.000
1789912775.473682,0.000,-40.039,0.000,0.000
1789912775.477560,0.000,-46.387,0.000,0.000
1789912775.481439,0.000,-53.711,0.000,0.000
1789912775.485317,0.000,-54.199,0.000,0.000
1789912775.489196,0.000,-55.176,0.000,0.000
1789912775.493074,0.000,-48.828,0.000,0.000
1789912775.496953,0.000,-50.293,0.000,0.000
1789912775.500831,0.000,-54.688,0.000,0.000
1789912775.504710,0.000,-50.781,0.000,0.000
1789912775.508588,0.000,-46.875,0.000,0.000
1789912775.512467,0.000,-47.363,0.000,0.000
1789912775.516672,-131.836,-48.828,-67.383,-49.316
1789912775.520551,-130.371,-44.434,-66.406,-44.434
1789912775.524430,-119.629,-42.480,-70.312,-46.875
1789912775.528308,-123.535,-42.969,-60.059,-50.781
1789912775.532187,-100.586,-42.480,-53.711,-49.316
1789912775.536066,-95.703,-40.527,-64.941,-44.434
1789912775.539944,-106.445,-38.086,-70.312,-54.688
1789912775.543823,-111.816,-34.180,-64.453,-42.480
1789912775.547702,-105.957,-35.156,-63.965,-33.691
1789912775.551580,-112.305,-39.062,-68.848,-71.777
1789912775.555459,-116.699,-38.086,-64.453,-69.336
1789912775.559337,-102.539,-38.086,-64.941,-55.176
1789912775.563500,-83.496,-41.016,-71.777,-67.383
1789912775.567379,-90.820,-38.086,-69.336,-70.312
1789912775.571257,-100.098,-34.668,-64.941,-55.176
1789912775.575136,-86.426,-36.133,-67.871,-34.180
1789912775.579015,-88.867,-38.574,-67.383,-33.691
1789912775.582894,-99.121,-38.086,-60.059,-47.363
1789912775.586772,-95.703,-36.133,-62.500,-55.664
1789912775.590651,-77.148,-34.668,-75.195,-34.668
1789912775.594530,-84.473,-34.668,-66.895,-36.621
1789912775.598408,-93.750,-30.762,-66.895,-38.574
1789912775.602287,-84.473,-27.344,-64.941,-41.992
1789912775.606166,-91.797,-25.391,-59.570,-51.270
1789912775.610510,-105.469,-28.809,-59.082,-55.664
