timestamp,TP9,AF7,AF8,TP10
1789912715.730853,0.000,0.000,0.000,0.000
1789912715.734712,-0.488,-0.488,0.000,0.000
1789912715.738572,-0.977,-0.488,0.000,-0.977
1789912715.742431,1.465,0.488,0.000,1.465
1789912715.746291,-10.254,-4.883,0.000,-9.766
1789912715.750151,-27.344,-15.137,0.000,-33.691
1789912715.754010,-24.414,-21.973,0.000,-31.250
1789912715.757870,-21.973,-25.391,0.000,-32.715
1789912715.761729,-27.344,-22.949,0.000,-42.969
1789912715.765589,-29.297,-19.531,0.000,-41.016
1789912715.769449,-41.992,-23.438,0.000,-31.738
1789912715.773309,-44.922,-30.762,0.000,-28.320
1789912715.776071,0.000,-29.297,-16.602,-35.156
1789912715.779839,0.000,-25.879,-17.090,-35.645
1789912715.783607,0.000,-21.484,-18.555,-38.086
1789912715.787376,0.000,-18.555,-21.484,-32.715
1789912715.791144,0.000,-27.344,-23.926,-34.180
1789912715.794912,0.000,-34.668,-27.344,-41.016
1789912715.798680,0.000,-27.832,-26.367,-34.668
1789912715.802449,0.000,-21.484,-23.926,-29.297
1789912715.806217,0.000,-26.855,-31.250,-37.598
1789912715.809985,0.000,-25.879,-24.414,-31.738
1789912715.813753,0.000,-26.855,-23.438,-36.133
1789912715.817521,0.000,-31.250,-30.273,-39.551
1789912715.818446,-52.734,-30.762,-35.156,-26.855
1789912715.822096,-53.223,-27.832,-33.691,-35.645
1789912715.825745,-55.176,-26.855,-25.391,-49.805
1789912715.829395,-38.086,-27.344,-21.484,-46.875
1789912715.833045,-9.277,-23.438,-25.391,-37.598
1789912715.836694,-3.906,-25.879,-24.902,-20.996
1789912715.840344,-41.016,-33.691,-16.113,-32.227
1789912715.843994,-69.336,-32.715,-14.160,-42.969
1789912715.847644,-44.922,-30.273,-19.043,-19.043
1789912715.851293,-14.160,-31.738,-15.625,-8.301
1789912715.854943,-40.527,-34.180,-12.695,-30.762
1789912715.858593,-46.875,-32.715,-16.113,-36.133
1789912715.858323,-33.203,-30.273,-15.625,-36.621
1789912715.861863,-27.344,-28.809,-19.531,-33.691
1789912715.865404,-18.066,-27.344,-18.066,-27.344
1789912715.868945,-19.531,-25.879,-9.766,-29.785
1789912715.872486,-26.855,-31.250,-8.789,-22.949
1789912715.876027,-36.621,-35.156,-8.789,-22.461
1789912715.879568,-45.410,-33.691,-15.137,-30.762
1789912715.883108,-52.734,-37.109,-18.555,-37.109
1789912715.886649,-41.504,-35.645,-13.672,-33.203
1789912715.890190,-32.715,-33.203,-15.137,-26.367
1789912715.893731,-39.062,-33.691,-17.578,-26.367
1789912715.897272,-22.949,-27.832,-12.207,-33.203
1789912715.897250,-23.438,-27.832,-11.230,-28.809
1789912715.900716,-41.016,-28.809,-15.137,-23.438
1789912715.904183,-28.320,-28.809,-20.020,-15.137
1789912715.907650,-21.973,-28.320,-16.602,-28.320
1789912715.911116,-24.414,-24.902,-9.277,-44.922
1789912715.914583,-13.672,-26.855,-13.672,-33.691
1789912715.918049,-9.277,-25.879,-9.277,-10.742
1789912715.921516,-16.602,-22.949,-3.906,-16.113
1789912715.924983,-36.133,-30.762,-11.230,-33.203
1789912715.928449,-34.668,-35.156,-14.160,-27.832
1789912715.931916,-36.621,-35.156,-10.742,-37.598
1789912715.935382,-48.340,-34.180,-13.672,-40.527
1789912715.938120,-49.316,-32.715,-18.066,-44.922
1789912715.941575,-49.316,-35.645,-22.949,-53.711
1789912715.945029,-43.457,-33.203,-22.949,-44.922
1789912715.948483,-39.551,-27.832,-12.207,-36.133
1789912715.951938,-47.852,-27.344,-14.160,-45.898
1789912715.955392,-52.734,-27.344,-20.508,-45.898
1789912715.958847,-24.414,-22.461,-14.648,-34.180
1789912715.962301,-16.113,-18.066,-7.812,-28.809
1789912715.965756,-25.391,-15.137,-1.953,-20.996
1789912715.969210,-19.043,-12.207,1.953,-9.277
1789912715.972665,-4.883,-11.719,0.977,-5.859
1789912715.976119,7.324,-9.766,1.465,-11.230
1789912715.979419,0.977,-4.883,5.371,-1.953
1789912715.982872,0.488,-4.395,7.812,-1.465
1789912715.986324,11.719,-3.906,4.883,9.766
1789912715.989776,13.672,0.977,3.906,11.230
1789912715.993229,13.184,5.371,7.324,2.441
1789912715.996681,5.859,-0.977,4.883,-10.742
1789912716.000133,3.418,-8.789,-0.977,-13.672
1789912716.003586,1.465,-0.977,4.395,0.488
1789912716.007038,0.977,7.812,7.324,13.184
1789912716.010490,7.324,8.789,-6.348,9.277
1789912716.013943,5.859,4.395,-13.672,-7.324
1789912716.017395,-1.953,0.488,-7.324,-0.977
1789912716.021188,-5.371,4.883,4.883,8.789
1789912716.024644,-4.395,2.930,0.000,-6.348
1789912716.028101,-22.461,-2.930,-8.301,-17.090
1789912716.031557,-36.621,-6.836,-5.371,-15.625
1789912716.035013,-18.555,-8.789,-15.137,-18.066
1789912716.038470,-10.742,-7.812,-18.555,-22.461
1789912716.041926,-12.207,-11.719,-17.090,-36.133
1789912716.045382,7.324,-8.789,-13.184,-39.062
1789912716.048839,2.930,-11.719,-13.672,-21.973
1789912716.052295,-7.324,-13.184,-18.555,-22.949
1789912716.055752,-16.602,-10.742,-16.113,-33.691
1789912716.059208,-32.227,-15.625,-25.879,-31.250
1789912716.063274,-12.695,-10.254,-36.621,-19.531
1789912716.066737,-5.859,-11.719,-25.879,-4.395
1789912716.070199,-20.508,-17.578,-23.926,-20.996
1789912716.073662,-15.625,-19.043,-30.762,-28.809
1789912716.077125,-3.418,-19.043,-23.438,-17.090
1789912716.080588,-7.324,-19.531,-23.438,-16.113
1789912716.084050,-27.832,-18.555,-28.320,-29.785
1789912716.087513,-36.133,-18.066,-32.227,-29.297
1789912716.090976,-26.855,-20.996,-27.344,-16.602
1789912716.094439,-20.996,-23.438,-24.902,-18.066
1789912716.097901,-27.344,-22.461,-26.855,-30.273
1789912716.101364,-34.668,-21.973,-26.855,-37.598
1789912716.105816,-40.039,-18.555,-32.715,-42.480
1789912716.109288,-33.203,-20.508,-39.062,-45.410
1789912716.112759,-22.461,-23.926,-35.645,-34.180
1789912716.116231,-35.156,-28.809,-34.668,-30.273
1789912716.119703,-30.762,-38.086,-38.086,-35.156
1789912716.123175,-26.367,-36.133,-40.039,-45.410
1789912716.126647,-37.598,-31.250,-43.945,-57.129
1789912716.130119,-37.109,-33.691,-42.480,-51.270
1789912716.133591,-35.645,-34.180,-38.086,-46.387
1789912716.137063,-41.504,-27.344,-36.133,-48.340
1789912716.140534,-27.344,-24.414,-31.250,-29.297
1789912716.144006,-32.227,-26.855,-28.809,-36.621
1789912716.148994,-46.387,-27.344,-37.598,-49.805
1789912716.152479,-48.340,-33.203,-47.363,-55.664
1789912716.155963,-43.945,-40.039,-43.945,-48.828
1789912716.159448,-43.457,-35.156,-39.062,-36.133
1789912716.162932,-46.875,-32.715,-37.598,-55.176
1789912716.166417,-40.527,-31.738,-34.180,-65.918
1789912716.169901,-30.762,-28.809,-31.250,-62.012
1789912716.173386,-37.598,-26.855,-35.645,-53.223
1789912716.176870,-50.781,-24.902,-37.109,-57.129
1789912716.180355,-52.246,-26.367,-37.109,-76.172
1789912716.183839,-41.992,-24.414,-40.039,-55.176
1789912716.187324,-30.762,-25.879,-41.992,-16.113
1789912716.192441,0.000,-32.715,-45.410,-25.391
1789912716.195938,0.000,-32.227,-40.039,-45.898
1789912716.199435,0.000,-34.668,-41.992,-43.945
1789912716.202932,0.000,-35.156,-51.270,-39.062
1789912716.206429,0.000,-30.762,-44.434,-43.457
1789912716.209926,0.000,-35.156,-36.621,-50.293
1789912716.213423,0.000,-35.645,-37.109,-51.270
1789912716.216920,0.000,-33.691,-38.574,-48.828
1789912716.220417,0.000,-31.738,-39.551,-46.387
1789912716.223913,0.000,-32.227,-45.410,-44.922
1789912716.227410,0.000,-34.668,-49.805,-37.109
1789912716.230907,0.000,-38.574,-42.480,-43.457
1789912716.237747,-29.297,-38.086,-36.133,-53.711
1789912716.241267,-29.785,-31.250,-39.062,-42.969
1789912716.244787,-42.969,-26.855,-33.691,-30.273
1789912716.248307,-45.410,-23.438,-29.297,-37.598
1789912716.251828,-30.762,-25.879,-32.227,-42.969
1789912716.255348,-27.344,-32.227,-30.273,-43.457
1789912716.258868,-38.574,-28.809,-26.367,-26.855
1789912716.262388,-51.270,-32.227,-34.668,-24.902
1789912716.265908,-41.504,-37.598,-41.016,-34.668
1789912716.269428,-36.133,-36.621,-38.574,-33.691
1789912716.272948,-45.898,-38.086,-38.086,-38.574
1789912716.276468,-43.457,-33.691,-42.969,-49.316
1789912716.281307,-42.480,-30.762,-37.109,-51.758
1789912716.284836,-48.340,-32.227,-30.273,-47.363
1789912716.288364,-42.480,-33.691,-34.668,-41.992
1789912716.291893,-45.410,-31.738,-41.016,-31.250
1789912716.295421,-47.363,-32.227,-39.551,-29.297
1789912716.298950,-28.809,-33.691,-33.691,-38.086
1789912716.302478,-42.480,-36.133,-32.227,-41.992
1789912716.306007,-47.363,-39.551,-29.297,-40.527
1789912716.309536,-13.672,-36.621,-25.879,-41.992
1789912716.313064,-15.137,-32.227,-27.344,-36.621
1789912716.316593,-22.949,-34.668,-31.738,-36.621
1789912716.320121,-12.695,-34.180,-35.156,-38.574
1789912716.326730,-18.555,-34.668,-46.387,-38.574
1789912716.330277,-25.879,-34.668,-45.898,-35.156
1789912716.333824,-35.156,-38.086,-38.574,-41.992
1789912716.337371,-58.105,-45.410,-39.062,-68.848
1789912716.340917,-47.363,-41.504,-37.109,-76.172
1789912716.344464,-41.016,-41.016,-44.434,-69.824
1789912716.348011,-42.480,-41.992,-42.480,-57.617
1789912716.351558,-31.250,-42.480,-36.621,-45.410
1789912716.355105,-36.133,-42.480,-40.527,-41.016
1789912716.358652,-34.180,-38.086,-41.504,-29.297
1789912716.362199,-24.902,-32.715,-37.598,-26.367
1789912716.365746,-57.617,-30.273,-39.062,-59.570
1789912716.372186,-74.219,-30.762,-40.039,-83.496
1789912716.375749,-54.688,-27.344,-42.480,-62.012
1789912716.379312,-61.523,-28.320,-40.527,-55.664
1789912716.382875,-68.359,-27.832,-43.945,-67.871
1789912716.386438,-66.406,-29.785,-56.641,-85.449
1789912716.390001,-60.059,-29.785,-56.641,-84.961
1789912716.393564,-69.824,-35.645,-55.664,-81.543
1789912716.397126,-75.195,-41.016,-55.176,-91.797
1789912716.400689,-87.402,-41.504,-56.152,-87.891
1789912716.404253,-76.172,-39.062,-53.711,-79.590
1789912716.407815,-54.688,-34.668,-52.734,-75.684
1789912716.411378,-46.387,-39.551,-46.875,-72.754
1789912716.417746,-46.875,-45.898,-43.945,-57.617
1789912716.421324,-46.875,-46.387,-43.945,-50.293
1789912716.424901,-54.688,-40.039,-39.062,-67.383
1789912716.428479,-47.363,-40.527,-43.945,-73.730
1789912716.432056,-42.480,-40.039,-43.945,-63.477
1789912716.435634,-46.387,-36.621,-42.480,-59.082
1789912716.439212,-42.969,-41.016,-46.387,-61.523
1789912716.442789,-30.762,-41.016,-43.457,-54.688
1789912716.446367,-36.133,-37.109,-44.922,-43.945
1789912716.449944,-58.105,-44.434,-47.363,-49.805
1789912716.453522,-45.898,-42.969,-36.621,-50.293
1789912716.457099,-22.461,-29.785,-23.438,-39.551
1789912716.463323,-22.461,-27.832,-27.344,-49.316
1789912716.466913,-42.480,-32.715,-36.133,-56.152
1789912716.470504,-38.574,-39.062,-30.273,-59.082
1789912716.474094,-36.133,-42.969,-29.297,-51.758
1789912716.477685,-26.367,-38.574,-29.297,-34.180
1789912716.481275,-20.508,-40.039,-31.250,-44.922
1789912716.484866,-32.227,-39.551,-35.156,-41.504
1789912716.488456,-28.809,-31.738,-34.180,-33.203
1789912716.492047,-29.785,-32.227,-31.738,-35.645
1789912716.495637,-27.344,-34.180,-21.973,-40.039
1789912716.499228,-19.531,-33.203,-19.043,-31.250
1789912716.502819,-22.461,-32.227,-20.508,-15.137
1789912716.508938,-16.602,-32.227,-20.996,-16.602
1789912716.512540,-9.277,-32.715,-24.902,-18.555
1789912716.516142,-15.137,-25.879,-19.043,-22.949
1789912716.519744,-20.508,-20.996,-17.578,-41.016
1789912716.523346,-17.090,-26.367,-25.879,-46.387
1789912716.526949,-17.090,-28.320,-28.809,-37.109
1789912716.530551,-6.348,-19.043,-19.043,-29.785
1789912716.534153,5.859,-13.672,-16.602,-23.438
1789912716.537755,6.348,-13.184,-25.391,-28.320
1789912716.541358,5.859,-16.113,-19.531,-30.762
1789912716.544960,-21.973,-14.160,-15.625,-39.062
1789912716.548562,-30.273,-9.277,-20.996,-42.480
1789912716.554424,-6.836,-8.301,-22.461,-27.344
1789912716.558036,-16.113,-13.672,-32.715,-27.344
1789912716.561648,-36.133,-20.020,-36.621,-33.691
1789912716.565260,-34.180,-17.090,-32.715,-31.738
1789912716.568872,-25.391,-10.254,-30.762,-28.320
1789912716.572484,-20.996,-12.695,-28.809,-28.320
1789912716.576097,-15.625,-19.043,-24.902,-12.695
1789912716.579709,-14.648,-18.066,-19.043,-12.695
1789912716.583321,-31.250,-12.695,-24.414,-19.531
1789912716.586933,-21.973,-3.418,-21.973,-4.395
1789912716.590545,-11.719,-5.371,-21.484,-12.695
1789912716.594157,-17.090,-13.672,-30.762,-36.133
1789912716.600100,-5.371,-11.230,-32.227,-20.020
1789912716.603722,-3.418,-12.207,-28.320,-13.672
1789912716.607344,-18.066,-22.461,-33.691,-38.574
1789912716.610966,-23.926,-24.414,-35.156,-37.598
1789912716.614588,-21.973,-20.996,-33.203,-30.273
1789912716.618209,-19.531,-22.461,-22.949,-34.180
1789912716.621831,-7.324,-20.508,-18.066,-32.227
1789912716.625453,-14.648,-20.020,-27.832,-39.551
1789912716.629075,-42.480,-28.320,-33.691,-44.922
1789912716.632697,-41.016,-31.250,-24.902,-35.156
1789912716.636319,-35.156,-26.855,-21.484,-27.832
1789912716.639941,-22.949,-21.484,-30.273,-23.438
1789912716.645665,-24.414,-25.879,-32.715,-34.668
1789912716.649295,-52.734,-34.180,-36.133,-44.922
1789912716.652925,-34.668,-31.738,-35.156,-28.320
1789912716.656556,-12.695,-30.273,-33.203,-15.137
1789912716.660186,-19.043,-33.691,-36.133,-25.879
1789912716.663816,-37.598,-35.645,-33.691,-26.367
1789912716.667446,-39.551,-36.133,-28.320,-23.438
1789912716.671076,-29.785,-27.832,-28.320,-31.738
1789912716.674707,-42.969,-26.367,-31.738,-36.621
1789912716.678337,-58.594,-32.715,-38.086,-39.062
1789912716.681967,-46.875,-41.504,-41.016,-23.926
1789912716.685597,-37.109,-49.316,-37.598,-19.531
1789912716.692504,-51.758,-49.805,-45.410,-54.199
1789912716.696147,-45.410,-40.039,-51.758,-68.848
1789912716.699790,-40.527,-37.109,-47.363,-61.523
1789912716.703432,-35.156,-37.109,-41.992,-47.363
1789912716.707075,-30.273,-27.832,-38.574,-26.855
1789912716.710717,-45.410,-34.180,-38.574,-40.527
1789912716.714360,-54.199,-43.457,-45.410,-59.082
1789912716.718003,-45.898,-48.828,-43.457,-58.105
1789912716.721645,-19.043,-51.758,-38.086,-48.340
1789912716.725288,-30.762,-47.852,-40.039,-41.016
1789912716.728931,-67.871,-41.992,-39.551,-44.922
1789912716.732573,-62.988,-47.852,-42.480,-59.570
1789912716.739118,-49.805,-52.246,-46.875,-49.316
1789912716.742771,-47.852,-45.410,-45.410,-43.945
1789912716.746424,-43.945,-46.387,-44.922,-63.477
1789912716.750077,-41.016,-48.340,-39.551,-44.434
1789912716.753731,-37.598,-47.852,-38.086,-29.297
1789912716.757384,-42.969,-46.875,-38.086,-45.898
1789912716.761037,-58.105,-48.828,-34.668,-58.594
1789912716.764690,-55.664,-52.246,-35.645,-50.781
1789912716.768343,-50.293,-54.199,-35.156,-32.227
1789912716.771996,-51.758,-46.875,-29.785,-25.879
1789912716.775649,-50.781,-39.551,-33.691,-41.992
1789912716.779302,-26.855,-42.480,-33.691,-36.621
1789912716.785684,-29.785,-41.016,-25.391,-18.066
1789912716.789346,-41.016,-39.062,-28.809,-32.227
1789912716.793009,-40.039,-43.945,-37.109,-48.340
1789912716.796672,-48.828,-48.340,-37.598,-41.992
1789912716.800334,-32.715,-38.574,-35.645,-43.457
1789912716.803997,-26.367,-27.344,-34.180,-44.922
1789912716.807660,-48.828,-37.109,-31.250,-53.711
1789912716.811322,-52.246,-40.039,-29.297,-66.406
1789912716.814985,-41.504,-34.180,-29.297,-53.711
1789912716.818647,-52.246,-40.527,-38.086,-45.898
1789912716.822310,-60.547,-45.410,-43.945,-45.410
1789912716.825973,-62.012,-46.875,-43.457,-58.594
1789912716.832350,-63.477,-46.387,-39.551,-52.734
1789912716.836022,-55.176,-45.410,-38.574,-37.598
1789912716.839694,-51.758,-46.387,-36.133,-41.992
1789912716.843365,-41.016,-46.387,-31.738,-47.363
1789912716.847037,-44.434,-47.363,-32.227,-61.523
1789912716.850708,-55.664,-44.434,-30.273,-62.500
1789912716.854380,-56.152,-44.922,-26.367,-47.363
1789912716.858052,-55.176,-52.246,-27.344,-41.992
1789912716.861724,-50.293,-53.711,-25.391,-53.711
1789912716.865395,-44.434,-46.387,-27.832,-64.453
1789912716.869067,-25.879,-43.457,-31.250,-44.922
1789912716.872739,-37.598,-46.387,-31.250,-40.039
1789912716.878742,-52.246,-43.457,-35.156,-51.270
1789912716.882421,-53.711,-41.016,-40.039,-52.246
1789912716.886101,-33.203,-44.922,-41.992,-52.734
1789912716.889780,-39.551,-48.828,-39.551,-54.688
1789912716.893459,-64.941,-44.434,-40.039,-58.594
1789912716.897138,-44.922,-38.086,-36.133,-55.664
1789912716.900817,-32.227,-39.062,-31.250,-51.270
1789912716.904496,-37.109,-39.551,-39.551,-52.246
1789912716.908175,-44.434,-33.691,-41.504,-58.105
1789912716.911854,-41.992,-35.156,-35.156,-56.641
1789912716.915534,-43.945,-40.527,-34.180,-53.223
1789912716.919213,-51.758,-46.875,-37.109,-55.176
1789912716.924991,-44.922,-45.410,-42.969,-48.340
1789912716.928676,-46.875,-36.133,-45.410,-52.246
1789912716.932362,-52.246,-38.086,-39.062,-51.270
1789912716.936047,-36.621,-41.504,-31.738,-44.922
1789912716.939733,-36.133,-40.527,-30.762,-53.711
1789912716.943419,-49.316,-36.133,-32.715,-55.176
1789912716.947104,-42.480,-33.203,-27.832,-56.152
1789912716.950790,-42.969,-35.156,-29.297,-48.340
1789912716.954475,-41.992,-34.668,-39.062,-54.199
1789912716.958161,-46.875,-33.691,-36.621,-71.777
1789912716.961847,-53.711,-32.715,-32.227,-49.805
1789912716.965532,-46.387,-33.203,-32.715,-53.711
1789912716.971260,-46.875,-35.645,-28.809,-61.523
1789912716.974952,-45.410,-34.668,-27.832,-55.664
1789912716.978644,-52.734,-32.227,-35.156,-50.781
1789912716.982335,-66.406,-36.133,-41.016,-46.387
1789912716.986027,-59.570,-35.645,-37.109,-51.270
1789912716.989719,-34.180,-34.180,-32.227,-62.988
1789912716.993410,-42.480,-35.156,-37.109,-62.500
1789912716.997102,-50.293,-36.133,-32.715,-62.012
1789912717.000794,-30.273,-42.480,-32.715,-59.570
1789912717.004485,-28.320,-46.387,-37.109,-48.828
1789912717.008177,-28.320,-35.156,-31.738,-57.129
1789912717.011869,-31.738,-21.484,-33.203,-68.848
1789912717.017400,-26.367,-25.391,-38.086,-54.199
1789912717.021096,-25.879,-32.715,-37.598,-53.711
1789912717.024794,-47.852,-26.855,-36.621,-60.059
1789912717.028491,-57.129,-31.738,-44.434,-60.059
1789912717.032187,-43.945,-41.992,-43.945,-60.547
1789912717.035884,-27.832,-38.086,-39.062,-53.711
1789912717.039581,-35.645,-33.691,-37.598,-54.688
1789912717.043278,-46.875,-33.203,-42.969,-70.801
1789912717.046975,-37.598,-29.785,-39.551,-67.383
1789912717.050672,-38.574,-27.344,-33.691,-44.434
1789912717.054369,-42.480,-29.297,-38.574,-46.875
1789912717.058066,-40.527,-30.762,-41.504,-57.617
1789912717.064637,-27.344,-29.785,-41.504,-61.523
1789912717.068341,-2.930,-21.973,-30.762,-56.641
1789912717.072047,-10.742,-17.090,-31.738,-63.477
1789912717.075752,-38.086,-24.414,-40.039,-73.242
1789912717.079456,-25.391,-27.344,-33.203,-70.312
1789912717.083161,-6.836,-20.508,-22.949,-56.152
1789912717.086866,-13.184,-19.043,-22.949,-50.781
1789912717.090571,-15.625,-18.555,-23.926,-51.270
1789912717.094276,-6.836,-11.230,-23.438,-46.875
1789912717.097981,1.953,-11.719,-22.461,-23.926
1789912717.101686,9.277,-11.230,-20.508,-16.113
1789912717.105391,6.348,-6.836,-21.973,-36.621
1789912717.111650,11.719,-5.371,-24.414,-36.133
1789912717.115362,22.461,-8.789,-23.926,-21.973
1789912717.119074,4.883,-8.789,-20.508,-17.578
1789912717.122786,-7.812,-2.930,-16.113,-27.344
1789912717.126498,2.441,-3.418,-15.625,-36.133
1789912717.130209,3.906,-2.441,-10.742,-37.598
1789912717.133921,15.625,-1.953,-4.395,-27.832
1789912717.137633,22.949,-5.371,-10.742,-18.555
1789912717.141345,-7.324,-11.230,-15.625,-7.324
1789912717.145057,-21.973,-14.160,-20.508,-20.020
1789912717.148768,-4.395,-11.230,-22.949,-22.461
1789912717.152480,4.395,-7.324,-22.461,-10.742
1789912717.158516,-2.930,-6.836,-19.531,-24.414
1789912717.162234,-4.395,-6.836,-13.184,-12.695
1789912717.165952,2.441,-6.836,-18.555,1.465
1789912717.169670,3.418,-5.371,-22.461,-11.719
1789912717.173388,-12.207,-6.348,-19.531,-20.020
1789912717.177106,-10.254,-14.160,-16.602,-19.043
1789912717.180824,-6.348,-18.066,-20.996,-19.531
1789912717.184541,-0.977,-12.207,-27.344,-15.137
1789912717.188259,0.977,-9.766,-27.344,-11.230
1789912717.191977,-23.438,-20.996,-31.738,-24.902
1789912717.195695,-27.832,-29.785,-36.621,-38.574
1789912717.199413,-16.602,-23.438,-36.621,-25.391
1789912717.205224,-15.625,-17.578,-36.621,-20.020
1789912717.208947,-28.320,-17.090,-36.621,-42.969
1789912717.212671,-35.156,-24.902,-39.062,-60.547
1789912717.216394,-27.344,-33.203,-35.645,-52.734
1789912717.220117,-11.719,-38.574,-38.086,-52.246
1789912717.223840,-13.672,-32.227,-42.480,-50.781
1789912717.227563,-18.555,-19.043,-40.039,-40.039
1789912717.231286,4.395,-21.973,-35.645,-12.695
1789912717.235009,-8.301,-30.762,-34.180,-10.254
1789912717.238733,-47.852,-28.320,-33.691,-45.410
1789912717.242456,-56.152,-25.879,-35.156,-50.781
1789912717.246179,-39.551,-33.203,-31.738,-39.551
1789912717.251863,-22.949,-39.551,-24.902,-38.574
1789912717.255592,-19.043,-39.062,-22.949,-48.340
1789912717.259320,-33.203,-42.480,-18.555,-39.551
1789912717.263047,-36.621,-42.480,-19.043,-14.648
1789912717.266775,-28.809,-37.598,-19.043,-6.348
1789912717.270504,-35.156,-38.086,-14.160,-16.602
1789912717.274231,-31.738,-33.203,-13.184,-37.598
1789912717.277959,-24.414,-29.785,-13.184,-38.574
1789912717.281687,-28.320,-34.668,-16.113,-14.160
1789912717.285415,-20.020,-35.156,-18.555,4.883
1789912717.289143,-28.320,-39.062,-19.531,1.465
1789912717.292871,-32.227,-41.016,-20.508,-6.348
1789912717.298357,-28.320,-41.504,-26.855,-14.160
1789912717.302089,-23.926,-45.898,-31.738,-13.672
1789912717.305821,-18.066,-35.645,-24.414,-22.949
1789912717.309554,-25.391,-29.297,-24.414,-41.016
1789912717.313286,-18.066,-35.645,-28.320,-35.156
1789912717.317018,-9.766,-35.156,-24.414,-30.762
1789912717.320750,-5.371,-33.203,-31.738,-34.668
1789912717.324482,-20.996,-31.738,-37.598,-32.715
1789912717.328214,-27.832,-29.297,-34.668,-22.461
1789912717.331946,-16.113,-23.438,-27.344,-19.531
1789912717.335679,-9.277,-24.902,-27.832,-21.484
1789912717.339411,-11.230,-39.551,-34.668,-34.180
1789912717.345757,-19.043,-32.227,-35.156,-37.109
1789912717.349496,-18.555,-25.391,-37.598,-17.090
1789912717.353234,-14.160,-34.180,-39.551,-24.414
1789912717.356972,-11.719,-31.250,-37.109,-42.969
1789912717.360710,-19.531,-27.344,-35.645,-41.016
1789912717.364449,-20.996,-34.180,-35.156,-40.039
1789912717.368187,-16.113,-34.668,-40.527,-37.598
1789912717.371925,-6.836,-26.367,-37.598,-39.551
1789912717.375663,-11.230,-21.484,-36.621,-50.781
1789912717.379401,0.488,-26.367,-50.781,-43.457
1789912717.383140,24.414,-27.832,-56.641,-33.691
1789912717.386878,10.742,-21.484,-52.734,-29.785
1789912717.392982,-14.160,-21.973,-50.781,-38.086
1789912717.396725,-15.625,-28.320,-52.246,-45.410
1789912717.400469,0.000,-32.227,-47.363,-21.973
1789912717.404212,4.395,-31.250,-45.410,-8.789
1789912717.407956,-11.230,-28.809,-49.805,-18.555
1789912717.411700,-17.578,-29.785,-51.758,-14.648
1789912717.415443,2.441,-30.762,-49.805,1.953
1789912717.419187,2.930,-24.414,-40.039,-11.719
1789912717.422930,-31.738,-27.344,-31.738,-39.062
1789912717.426674,-46.387,-36.133,-31.738,-46.875
1789912717.430417,-40.527,-35.156,-33.203,-41.504
1789912717.434161,-34.668,-37.598,-37.598,-38.574
1789912717.440396,-35.156,-39.551,-39.062,-40.527
1789912717.444145,-33.203,-32.227,-34.180,-37.109
1789912717.447894,-26.855,-26.367,-30.273,-30.273
1789912717.451643,-16.602,-27.344,-31.250,-34.180
1789912717.455392,-14.160,-29.785,-32.715,-41.504
1789912717.459141,-27.832,-29.785,-34.180,-36.621
1789912717.462890,-33.203,-27.832,-35.156,-36.133
1789912717.466639,-28.320,-27.832,-32.715,-38.086
1789912717.470388,-26.367,-25.879,-30.273,-24.902
1789912717.474137,-14.160,-20.996,-31.250,-15.137
1789912717.477886,-19.043,-10.254,-22.949,-20.508
1789912717.481635,-24.902,-19.531,-16.113,-16.602
1789912717.488296,-5.371,-33.691,-27.344,-14.160
1789912717.492051,-15.625,-32.715,-31.250,-31.738
1789912717.495806,-39.062,-25.391,-24.902,-37.598
1789912717.499562,-29.785,-20.020,-25.879,-38.574
1789912717.503317,-24.902,-27.344,-38.086,-50.781
1789912717.507072,-24.902,-31.738,-38.086,-62.500
1789912717.510827,-18.066,-25.879,-29.297,-52.734
1789912717.514582,-8.301,-22.461,-29.785,-48.340
1789912717.518338,13.184,-24.414,-34.668,-38.086
1789912717.522093,12.695,-27.344,-40.039,-32.715
1789912717.525848,-14.160,-36.621,-38.574,-49.805
1789912717.529603,-27.832,-36.133,-41.504,-46.387
1789912717.535174,0.000,-23.438,-38.574,-41.016
1789912717.538933,0.000,-24.414,-34.668,-45.898
1789912717.542692,0.000,-31.738,-32.227,-45.898
1789912717.546451,0.000,-25.879,-24.414,-64.453
1789912717.550210,0.000,-24.902,-24.902,-76.172
1789912717.553969,0.000,-29.297,-30.273,-57.617
1789912717.557728,0.000,-36.621,-34.180,-56.641
1789912717.561487,0.000,-35.156,-39.062,-48.828
1789912717.565246,0.000,-23.438,-34.668,-36.621
1789912717.569005,0.000,-26.855,-30.273,-38.574
1789912717.572764,0.000,-24.902,-27.832,-41.992
1789912717.576523,0.000,-20.508,-11.719,-42.969
1789912717.582781,-45.898,-24.414,-14.648,-38.086
1789912717.586545,-36.621,-27.832,-24.902,-44.434
1789912717.590309,-28.809,-25.879,-22.949,-59.570
1789912717.594073,-22.949,-21.973,-20.508,-59.570
1789912717.597837,-9.277,-27.344,-21.973,-67.871
1789912717.601601,-12.695,-29.297,-28.320,-87.402
1789912717.605365,-20.996,-30.762,-33.203,-83.984
1789912717.609129,-38.574,-31.738,-30.273,-65.430
1789912717.612893,-45.410,-28.320,-25.879,-54.688
1789912717.616657,-34.668,-28.320,-26.855,-57.617
1789912717.620421,-27.344,-32.715,-29.297,-58.105
1789912717.624185,-35.645,-34.668,-37.109,-78.613
1789912717.629574,-40.527,-30.762,-37.598,-84.961
1789912717.633341,-41.992,-28.809,-30.762,-70.312
1789912717.637108,-46.875,-26.855,-29.785,-62.012
1789912717.640876,-45.410,-28.320,-34.180,-78.613
1789912717.644643,-58.105,-28.320,-41.016,-97.168
1789912717.648410,-52.734,-30.273,-38.086,-88.379
1789912717.652177,-43.945,-35.156,-32.715,-86.426
1789912717.655945,-41.504,-34.668,-32.227,-87.891
1789912717.659712,-55.664,-30.273,-33.203,-85.938
1789912717.663479,-75.684,-29.297,-33.691,-90.820
1789912717.667247,-62.988,-29.785,-35.156,-80.078
1789912717.671014,-31.738,-32.715,-33.691,-50.781
1789912717.677025,0.000,-29.297,-34.668,-52.246
1789912717.680797,0.000,-31.738,-38.086,-90.332
1789912717.684569,0.000,-31.250,-46.875,-110.840
1789912717.688340,0.000,-29.785,-57.617,-102.051
1789912717.692112,0.000,-25.391,-59.570,-104.004
1789912717.695884,0.000,-13.672,-58.105,-119.629
1789912717.699655,0.000,-17.578,-62.500,-112.305
1789912717.703427,0.000,-19.531,-66.406,-101.562
1789912717.707199,0.000,-14.648,-63.965,-110.352
1789912717.710970,0.000,-16.602,-65.430,-115.234
1789912717.714742,0.000,-15.625,-65.918,-118.164
1789912717.718513,0.000,-18.555,-62.500,-115.234
1789912717.722868,-20.996,-20.508,-63.477,-107.910
1789912717.726641,-49.805,-0.977,-58.105,-102.539
1789912717.730414,-59.570,6.836,-54.199,-87.891
1789912717.734187,-62.012,-12.207,-56.152,-91.309
1789912717.737959,-64.453,-16.113,-58.105,-85.449
1789912717.741732,-63.477,-4.395,-60.547,-87.402
1789912717.745505,-42.969,-0.977,-55.664,-97.168
1789912717.749278,-31.738,-0.977,-53.223,-95.215
1789912717.753050,-38.574,-6.836,-56.641,-89.844
1789912717.756823,-34.668,-8.789,-57.129,-90.332
1789912717.760596,-26.367,1.953,-47.363,-83.984
1789912717.764369,-12.695,0.488,-41.992,-70.312
1789912717.769365,-11.230,2.930,-42.480,-72.754
1789912717.773139,-4.883,0.488,-55.176,-82.520
1789912717.776915,-15.137,-11.230,-63.965,-88.379
1789912717.780689,-26.367,-15.625,-60.547,-96.191
1789912717.784465,-23.926,-13.672,-54.199,-85.938
1789912717.788240,-16.602,-11.719,-56.152,-78.613
1789912717.792015,-19.043,-11.719,-59.570,-84.473
1789912717.795790,-15.137,-6.836,-59.570,-76.660
1789912717.799565,9.277,-7.324,-61.523,-76.660
1789912717.803340,6.348,-6.836,-59.082,-83.984
1789912717.807115,-29.297,-12.207,-61.523,-87.402
1789912717.810890,-30.762,-19.531,-56.152,-90.820
1789912717.817369,-7.812,-17.578,-56.641,-85.449
1789912717.821149,-16.113,-21.484,-61.523,-75.684
1789912717.824929,-30.762,-25.391,-62.012,-76.172
1789912717.828709,-28.320,-17.090,-63.477,-86.914
1789912717.832489,-27.344,-11.719,-58.594,-89.355
1789912717.836268,-25.391,-22.949,-61.035,-98.633
1789912717.840048,-38.086,-26.367,-67.383,-113.281
1789912717.843828,-44.922,-21.484,-69.824,-115.234
1789912717.847608,-34.668,-30.273,-67.871,-110.352
1789912717.851388,-26.367,-30.273,-66.895,-99.121
1789912717.855168,-28.320,-28.320,-69.824,-93.262
1789912717.858948,-43.945,-32.227,-70.801,-91.797
1789912717.864345,-45.410,-34.180,-68.848,-98.633
1789912717.868128,-32.227,-32.227,-73.242,-99.609
1789912717.871911,-32.227,-30.273,-78.613,-99.609
1789912717.875694,-49.316,-30.762,-77.637,-117.188
1789912717.879476,-46.387,-29.297,-72.266,-118.652
1789912717.883259,-44.434,-31.738,-69.336,-107.910
1789912717.887042,-42.480,-39.062,-71.289,-103.516
1789912717.890825,-46.387,-46.875,-77.148,-109.375
1789912717.894608,-51.270,-47.363,-74.219,-123.535
1789912717.898390,-41.504,-39.551,-66.895,-125.488
1789912717.902173,-32.227,-39.062,-63.477,-123.047
1789912717.905956,-24.902,-39.062,-69.336,-115.234
1789912717.911944,-41.504,-40.039,-73.730,-100.586
1789912717.915730,-59.082,-41.992,-71.777,-99.609
1789912717.919517,-51.758,-36.621,-71.289,-106.934
1789912717.923304,-48.828,-32.715,-63.965,-108.398
1789912717.927090,-56.152,-33.691,-63.965,-115.234
1789912717.930877,-67.871,-43.945,-67.383,-122.559
1789912717.934664,-61.035,-53.711,-64.453,-112.793
1789912717.938450,-41.504,-52.246,-60.547,-87.891
1789912717.942237,-59.570,-46.387,-62.988,-104.004
1789912717.946023,-76.172,-48.828,-68.848,-145.508
1789912717.949810,-72.266,-50.293,-72.754,-155.273
1789912717.953597,-61.523,-51.270,-71.289,-137.695
1789912717.958812,-54.688,-54.199,-68.848,-130.859
1789912717.962601,-50.293,-49.316,-72.266,-133.301
1789912717.966390,-46.875,-46.387,-70.801,-132.812
1789912717.970179,-45.410,-47.852,-72.266,-143.555
1789912717.973968,-43.945,-42.480,-78.613,-140.137
1789912717.977757,-56.152,-38.574,-67.871,-125.977
1789912717.981546,-54.199,-40.039,-56.152,-125.488
1789912717.985335,-49.316,-42.969,-56.152,-115.234
1789912717.989124,-48.340,-43.945,-56.152,-113.281
1789912717.992913,-51.270,-41.504,-57.129,-124.512
1789912717.996702,-55.664,-41.504,-54.199,-119.141
1789912718.000491,-47.363,-38.574,-51.270,-108.398
1789912718.006235,-25.391,-37.109,-53.711,-110.352
1789912718.010027,-33.691,-42.480,-50.293,-124.023
1789912718.013819,-55.664,-40.527,-52.246,-126.465
1789912718.017612,-50.293,-41.992,-55.176,-121.582
1789912718.021404,-49.316,-49.316,-55.176,-111.328
1789912718.025196,-53.223,-47.363,-53.223,-107.422
1789912718.028988,-43.457,-46.875,-55.664,-123.535
1789912718.032781,-43.945,-51.758,-62.988,-119.629
1789912718.036573,-37.109,-52.246,-58.105,-114.746
1789912718.040365,-31.250,-50.293,-55.176,-122.070
1789912718.044158,-40.527,-49.805,-53.711,-114.746
1789912718.047950,-42.480,-55.176,-50.293,-111.328
1789912718.052953,-50.781,-54.199,-54.199,-113.281
1789912718.056747,-57.129,-52.246,-62.500,-114.258
1789912718.060541,-53.711,-56.152,-59.082,-123.535
1789912718.064335,-48.828,-51.270,-49.805,-126.953
1789912718.068130,-42.969,-51.270,-56.152,-126.953
1789912718.071924,-37.598,-55.664,-60.059,-126.953
1789912718.075718,-39.062,-50.781,-59.082,-127.441
1789912718.079512,-35.156,-48.340,-56.152,-117.676
1789912718.083307,-37.598,-51.270,-50.293,-112.305
1789912718.087101,-51.270,-52.246,-54.199,-114.746
1789912718.090895,-46.387,-53.223,-55.176,-110.840
1789912718.094690,-47.852,-55.176,-52.246,-113.281
1789912718.099469,-47.363,-53.711,-52.246,-118.164
1789912718.103265,-38.086,-50.781,-43.457,-112.305
1789912718.107061,-48.340,-46.387,-41.992,-105.957
1789912718.110857,-48.828,-44.434,-47.852,-108.398
1789912718.114652,-44.922,-50.781,-46.387,-114.258
1789912718.118448,-44.434,-48.340,-45.410,-108.887
1789912718.122244,-42.969,-46.875,-46.875,-96.680
1789912718.126040,-54.688,-60.059,-48.340,-111.816
1789912718.129836,-64.453,-61.035,-43.945,-131.348
1789912718.133632,-71.289,-55.664,-41.992,-123.047
1789912718.137428,-54.688,-50.781,-40.039,-125.488
1789912718.141223,-49.805,-53.711,-41.016,-132.324
1789912718.145902,-47.852,-51.758,-41.992,-123.047
1789912718.149699,-36.621,-47.852,-41.016,-110.840
1789912718.153496,-31.738,-51.270,-41.992,-106.934
1789912718.157294,-36.621,-49.316,-35.156,-120.117
1789912718.161091,-35.156,-44.922,-32.715,-125.488
1789912718.164888,-46.387,-48.828,-36.133,-116.211
1789912718.168685,-58.594,-55.664,-37.109,-109.375
1789912718.172482,-41.504,-60.547,-38.574,-98.145
1789912718.176280,-43.945,-61.523,-37.598,-118.164
1789912718.180077,-54.199,-62.012,-31.250,-128.906
1789912718.183874,-53.711,-58.105,-30.273,-114.746
1789912718.187671,-24.414,-50.293,-46.875,-117.676
1789912718.193143,-15.137,-51.270,-42.480,-114.258
1789912718.196942,-57.129,-56.641,-29.785,-125.488
1789912718.200742,-65.918,-57.129,-30.273,-127.930
1789912718.204542,-41.504,-49.316,-29.297,-102.539
1789912718.208342,-41.016,-46.387,-24.902,-102.051
1789912718.212142,-53.711,-54.199,-23.438,-114.258
1789912718.215942,-59.570,-59.570,-20.996,-115.234
1789912718.219741,-49.805,-64.941,-22.949,-109.863
1789912718.223541,-51.270,-65.430,-25.879,-108.398
1789912718.227341,-56.152,-55.664,-25.391,-94.238
1789912718.231141,-45.898,-49.805,-23.438,-88.379
1789912718.234941,-37.598,-53.711,-23.438,-97.656
1789912718.240082,-35.156,-55.664,-24.414,-96.191
1789912718.243884,-45.410,-59.082,-26.367,-99.609
1789912718.247686,-44.434,-57.617,-24.414,-105.469
1789912718.251487,-32.715,-48.340,-18.066,-102.539
1789912718.255289,-37.598,-51.270,-18.555,-93.750
1789912718.259091,-48.828,-54.688,-24.414,-95.703
1789912718.262893,-55.176,-52.246,-22.461,-106.445
1789912718.266695,-41.992,-51.758,-20.996,-107.422
1789912718.270497,-34.668,-51.758,-24.414,-101.074
1789912718.274299,-43.945,-56.641,-27.344,-95.215
1789912718.278100,-50.781,-58.105,-27.832,-104.980
1789912718.281903,-59.082,-58.105,-28.320,-107.422
1789912718.286930,-54.688,-56.152,-24.414,-92.285
1789912718.290734,-50.293,-54.199,-22.461,-95.215
1789912718.294538,-47.852,-54.199,-21.484,-111.816
1789912718.298341,-31.738,-50.781,-19.531,-114.258
1789912718.302145,-18.066,-45.898,-20.508,-104.004
1789912718.305949,-18.555,-45.410,-18.555,-79.590
1789912718.309752,-14.648,-43.945,-16.113,-81.543
1789912718.313556,-24.414,-40.039,-18.066,-98.145
1789912718.317360,-20.996,-37.109,-12.695,-94.238
1789912718.321163,-17.578,-38.086,-14.160,-86.914
1789912718.324967,-30.273,-43.945,-21.973,-84.473
1789912718.328771,-26.855,-37.598,-15.137,-78.613
1789912718.333717,-18.066,-36.133,-16.113,-83.984
1789912718.337522,-30.762,-40.039,-18.555,-83.984
1789912718.341327,-30.273,-38.086,-11.719,-68.359
1789912718.345133,-19.531,-38.574,-8.789,-62.012
1789912718.348938,-28.809,-40.039,-16.113,-68.359
1789912718.352743,-31.250,-41.016,-15.625,-59.082
1789912718.356549,-25.391,-38.574,-7.324,-48.340
1789912718.360354,-34.180,-34.668,-13.672,-50.293
1789912718.364160,-20.996,-28.320,-9.766,-42.969
1789912718.367965,0.488,-23.438,-2.441,-42.969
1789912718.371770,-4.395,-23.926,-10.742,-47.363
1789912718.375576,-29.297,-25.391,-7.324,-53.711
1789912718.380551,0.000,-22.949,2.441,0.000
1789912718.384358,0.000,-19.043,-0.488,0.000
1789912718.388165,0.000,-14.648,-2.930,0.000
1789912718.391972,0.000,-13.184,-0.488,0.000
1789912718.395779,0.000,-16.602,-3.418,0.000
1789912718.399586,0.000,-17.578,-3.418,0.000
1789912718.403394,0.000,-14.648,-0.488,0.000
1789912718.407201,0.000,-12.695,3.906,0.000
1789912718.411008,0.000,-9.766,8.789,0.000
1789912718.414815,0.000,-9.766,5.371,0.000
1789912718.418622,0.000,-13.184,2.930,0.000
1789912718.422429,0.000,-10.742,4.395,0.000
1789912718.427178,6.348,-8.789,-0.488,-24.902
1789912718.430986,8.789,-11.230,-2.441,-24.902
1789912718.434794,6.836,-11.230,0.488,-15.137
1789912718.438603,8.301,-17.090,-9.277,-14.160
1789912718.442411,-5.859,-20.508,-7.324,-23.926
1789912718.446219,-13.184,-15.625,-2.441,-33.203
1789912718.450028,-5.859,-13.672,-3.906,-22.949
1789912718.453836,-3.418,-21.484,-5.371,-10.254
1789912718.457645,-11.230,-27.832,-8.301,-16.602
1789912718.461453,-17.090,-23.926,-9.277,-38.086
1789912718.465261,-5.859,-23.926,-6.836,-48.340
1789912718.469070,0.488,-29.785,-3.418,-41.504
1789912718.473739,-16.602,-30.273,-8.789,-41.504
1789912718.477549,-30.762,-32.227,-17.090,-50.781
1789912718.481359,-9.277,-30.762,-20.996,-50.293
1789912718.485168,-5.859,-27.344,-17.090,-37.598
1789912718.488978,-23.438,-29.785,-17.578,-44.434
1789912718.492787,-27.832,-33.691,-19.531,-57.617
1789912718.496597,-36.133,-37.109,-18.555,-60.547
1789912718.500407,-41.992,-41.016,-27.344,-56.152
1789912718.504216,-24.902,-42.480,-33.691,-58.594
1789912718.508026,-9.277,-33.203,-30.273,-60.547
1789912718.511835,-30.762,-28.809,-28.320,-60.059
1789912718.515645,-39.062,-32.227,-27.344,-55.176
1789912718.520357,-27.344,-32.715,-28.320,-50.781
1789912718.524168,-42.480,-39.062,-27.344,-56.641
1789912718.527979,-47.363,-46.387,-23.438,-68.848
1789912718.531789,-38.574,-49.805,-27.832,-79.102
1789912718.535600,-41.016,-54.199,-33.691,-63.477
1789912718.539411,-41.504,-48.828,-31.738,-39.551
1789912718.543222,-41.504,-43.945,-31.250,-22.461
1789912718.547033,-37.109,-43.457,-33.691,-30.762
1789912718.550843,-26.367,-38.574,-31.250,-37.109
1789912718.554654,-35.645,-34.180,-27.832,-19.531
1789912718.558465,-39.062,-34.668,-25.391,-22.949
1789912718.562276,-47.363,-36.621,-21.973,-39.062
1789912718.567434,-60.059,-37.598,-23.438,-43.945
1789912718.571247,-46.875,-40.039,-25.391,-36.621
1789912718.575059,-51.758,-40.039,-29.785,-32.227
1789912718.578872,-62.500,-44.922,-26.855,-50.781
1789912718.582685,-59.570,-45.898,-24.414,-52.246
1789912718.586497,-48.340,-42.480,-29.785,-31.738
1789912718.590310,-44.922,-45.410,-30.762,-41.992
1789912718.594122,-53.223,-42.969,-30.762,-60.059
1789912718.597935,-58.594,-35.645,-29.785,-59.570
1789912718.601748,-63.477,-36.133,-25.391,-55.176
1789912718.605560,-76.172,-37.109,-28.320,-62.988
1789912718.609373,-72.266,-26.367,-19.043,-70.801
1789912718.614412,-71.777,-27.832,-10.742,-66.406
1789912718.618226,-93.750,-31.250,-17.578,-63.965
1789912718.622041,-91.309,-22.949,-6.836,-68.359
1789912718.625855,-97.656,-23.438,-1.953,-83.984
1789912718.629669,-100.586,-28.320,0.000,-83.984
1789912718.633483,-89.355,-30.273,5.859,-81.543
1789912718.637297,-95.215,-28.320,9.277,-89.355
1789912718.641112,-107.910,-27.344,13.184,-90.332
1789912718.644926,-115.234,-24.902,14.160,-78.613
1789912718.648740,-137.695,-20.508,10.254,-89.844
1789912718.652554,-130.371,-20.996,10.254,-109.375
1789912718.656368,-113.281,-15.137,17.090,-97.168
1789912718.661320,0.000,-11.230,18.066,-112.305
1789912718.665136,0.000,-11.230,18.555,-115.723
1789912718.668952,0.000,-8.301,18.555,-93.262
1789912718.672767,0.000,-12.695,16.113,-89.844
1789912718.676583,0.000,-17.090,10.254,-104.492
1789912718.680398,0.000,-16.602,8.301,-105.957
1789912718.684214,0.000,-21.484,6.348,-98.633
1789912718.688030,0.000,-26.367,4.883,-107.910
1789912718.691846,0.000,-27.832,-5.371,-100.098
1789912718.695661,0.000,-28.320,-12.695,-87.891
1789912718.699477,0.000,-27.832,-13.672,-84.473
1789912718.703293,0.000,-32.227,-20.020,-75.684
1789912718.706622,-125.488,-32.227,-20.020,-67.383
1789912718.710437,-125.488,-30.762,-16.602,-64.453
1789912718.714252,-115.723,-30.273,-16.602,-67.871
1789912718.718067,-120.117,-30.273,-18.555,-52.734
1789912718.721882,-124.512,-36.621,-25.391,-47.363
1789912718.725697,-104.492,-39.062,-27.832,-53.223
1789912718.729512,-95.215,-38.086,-29.297,-48.340
1789912718.733328,-91.797,-45.410,-36.621,-41.504
1789912718.737143,-103.027,-46.387,-33.691,-26.855
1789912718.740958,-115.234,-45.410,-31.738,-39.551
1789912718.744773,-105.469,-44.434,-33.203,-37.109
1789912718.748588,-95.215,-51.270,-35.156,-18.066
1789912718.753417,1.953,-55.664,-39.551,-13.672
1789912718.757233,0.000,-58.105,-37.109,-18.555
1789912718.761050,-29.297,-62.500,-36.133,-19.043
1789912718.764866,-21.973,-61.035,-31.738,-19.531
1789912718.768682,-8.301,-61.035,-30.273,-13.672
1789912718.772499,-8.789,-58.105,-32.227,-9.277
1789912718.776315,-4.395,-55.664,-28.809,-6.348
1789912718.780131,1.953,-58.105,-27.344,2.441
1789912718.783948,4.883,-59.082,-25.879,6.348
1789912718.787764,3.418,-53.711,-26.367,8.789
1789912718.791580,3.418,-54.688,-32.715,3.906
1789912718.795397,12.207,-62.012,-33.203,-8.301
1789912718.800156,20.508,-61.035,-29.297,-5.859
1789912718.803973,17.090,-56.641,-25.391,2.441
1789912718.807791,18.066,-52.246,-31.738,-3.906
1789912718.811609,17.090,-50.293,-37.109,0.488
1789912718.815426,4.883,-52.734,-31.738,3.906
1789912718.819244,9.277,-51.270,-28.320,2.930
1789912718.823061,0.000,-48.828,-27.344,14.648
1789912718.826879,-15.625,-51.270,-28.809,0.488
1789912718.830696,-19.043,-53.711,-29.785,-8.789
1789912718.834514,-20.508,-58.594,-35.645,1.953
1789912718.838331,-2.930,-54.199,-33.691,5.371
1789912718.842149,-18.066,-42.969,-25.391,8.301
1789912718.846829,-23.926,-46.387,-31.250,0.977
1789912718.850648,4.395,-49.805,-38.574,4.395
1789912718.854466,-4.395,-45.410,-28.809,6.836
1789912718.858285,-14.160,-47.363,-23.926,-10.254
1789912718.862104,-20.020,-47.852,-25.391,-11.719
1789912718.865922,-15.625,-49.805,-28.809,-0.977
1789912718.869741,5.859,-51.270,-28.320,13.672
1789912718.873559,-11.719,-50.781,-29.297,-0.488
1789912718.877378,-31.738,-49.316,-30.762,-22.949
1789912718.881196,0.977,-45.898,-24.414,-16.602
1789912718.885015,6.348,-44.922,-22.949,-1.953
1789912718.888834,-19.043,-42.480,-23.438,3.418
1789912718.893453,-29.785,-43.945,-28.809,-0.977
1789912718.897272,-12.207,-52.734,-31.250,12.695
1789912718.901092,-0.488,-54.688,-27.344,16.602
1789912718.904911,-28.320,-43.457,-32.227,-9.277
1789912718.908731,-27.344,-41.016,-31.738,-23.438
1789912718.912550,-29.785,-50.293,-26.855,-23.926
1789912718.916370,-21.484,-51.270,-29.297,-16.602
1789912718.920190,-3.906,-44.922,-28.809,-11.719
1789912718.924009,-14.160,-42.969,-28.809,-17.578
1789912718.927829,4.395,-37.598,-27.832,1.465
1789912718.931648,29.785,-34.180,-28.320,27.344
1789912718.935468,26.367,-33.203,-33.203,19.043
1789912718.940578,0.000,-33.203,-35.645,11.719
1789912718.944399,0.000,-37.598,-33.203,19.531
1789912718.948220,0.000,-38.574,-25.879,21.484
1789912718.952041,0.000,-35.156,-23.438,26.367
1789912718.955862,0.000,-36.621,-28.320,17.578
1789912718.959683,0.000,-42.480,-21.973,12.207
1789912718.963505,0.000,-40.527,-16.113,8.301
1789912718.967326,0.000,-37.109,-20.508,3.906
1789912718.971147,0.000,-27.344,-12.695,20.996
1789912718.974968,0.000,-29.785,-10.742,17.578
1789912718.978789,0.000,-37.598,-25.879,-2.441
1789912718.982610,0.000,-32.715,-26.367,5.371
1789912718.987600,11.230,-29.297,-15.625,20.020
1789912718.991422,5.371,-25.391,-9.277,23.438
1789912718.995245,9.766,-22.949,-5.371,27.832
1789912718.999067,22.949,-23.438,-2.441,20.996
1789912719.002890,32.227,-20.020,-1.465,22.461
1789912719.006712,27.344,-13.184,-1.465,18.066
1789912719.010535,22.949,-12.207,0.488,23.438
1789912719.014357,20.508,-11.719,6.348,47.363
1789912719.018179,25.391,-6.836,3.418,54.199
1789912719.022002,29.785,-3.906,1.465,43.457
1789912719.025825,32.227,0.488,10.254,29.785
1789912719.029647,29.297,8.301,8.789,32.715
1789912719.034516,25.391,1.465,6.836,42.480
1789912719.038339,23.926,-3.418,8.301,50.781
1789912719.042163,25.391,3.906,10.254,50.293
1789912719.045987,40.527,4.395,10.254,48.828
1789912719.049810,36.133,1.953,11.719,44.434
1789912719.053634,37.109,8.301,15.137,41.992
1789912719.057458,47.363,14.648,13.184,47.363
1789912719.061281,20.020,12.695,13.672,56.641
1789912719.065105,8.789,14.648,10.742,63.965
1789912719.068929,29.297,14.160,5.371,60.059
1789912719.072752,24.414,8.789,7.324,41.992
1789912719.076576,7.324,3.418,5.371,29.785
1789912719.081497,8.789,-2.441,-3.418,27.344
1789912719.085322,20.996,-1.953,-5.371,42.480
1789912719.089147,4.395,1.465,0.000,43.945
1789912719.092972,-7.812,1.953,0.488,23.926
1789912719.096797,7.324,0.977,1.953,28.320
1789912719.100622,16.113,0.488,2.930,31.738
1789912719.104446,12.695,-0.488,5.859,40.039
1789912719.108271,-2.930,-8.789,4.395,38.574
1789912719.112096,-6.836,-11.230,-0.488,27.344
1789912719.115921,11.230,-2.930,1.953,19.531
1789912719.119746,16.113,-3.906,0.488,23.926
1789912719.123571,3.906,-12.695,-4.883,23.438
1789912719.128321,-14.160,-16.602,-7.812,15.625
1789912719.132147,-1.465,-12.207,-0.977,22.461
1789912719.135973,3.906,-11.230,0.488,30.273
1789912719.139799,-8.789,-17.090,-3.906,17.578
1789912719.143625,-10.254,-14.648,-2.441,1.465
1789912719.147451,-11.230,-14.648,-5.371,4.395
1789912719.151277,-3.418,-16.602,-0.977,20.996
1789912719.155103,-0.488,-16.113,0.488,34.180
1789912719.158929,-12.207,-15.137,-5.371,19.043
1789912719.162755,-24.902,-17.090,-7.324,9.766
1789912719.166581,-20.508,-21.484,-10.742,17.578
1789912719.170407,-10.742,-20.996,-14.160,21.973
1789912719.175087,-7.324,-23.438,-14.160,18.555
1789912719.178914,-17.578,-28.320,-12.695,14.648
1789912719.182741,-15.137,-27.344,-9.766,10.742
1789912719.186568,-8.301,-29.297,-12.695,12.695
1789912719.190395,-18.066,-25.391,-15.137,5.859
1789912719.194221,-32.715,-21.484,-13.184,-4.883
1789912719.198049,-44.434,-27.832,-20.020,0.000
1789912719.201875,-41.016,-32.227,-23.926,6.836
1789912719.205702,-42.969,-26.855,-22.461,-11.230
1789912719.209529,-39.551,-21.484,-19.531,-19.531
1789912719.213356,-33.691,-22.461,-17.090,2.441
1789912719.217183,-20.508,-31.250,-21.484,13.672
1789912719.221786,-16.602,-35.645,-17.090,-5.371
1789912719.225614,-25.391,-33.203,-10.742,-6.836
1789912719.229442,-30.273,-38.574,-14.160,-6.836
1789912719.233270,-33.203,-39.551,-14.648,-17.578
1789912719.237098,-30.273,-39.551,-16.602,-9.277
1789912719.240925,-34.180,-39.062,-20.020,-16.113
1789912719.244753,-48.828,-34.180,-20.996,-17.090
1789912719.248581,-42.480,-33.691,-19.043,-19.531
1789912719.252409,-35.156,-37.598,-20.996,-22.461
1789912719.256237,-46.387,-37.598,-22.461,-14.648
1789912719.260064,-41.992,-40.039,-18.066,-4.395
1789912719.263892,-30.273,-38.086,-11.230,9.766
1789912719.268446,-26.855,-37.598,-6.348,17.090
1789912719.272274,-30.762,-40.527,-7.812,1.953
1789912719.276103,-25.879,-36.133,-6.836,0.000
1789912719.279932,-29.297,-34.180,-6.348,9.277
1789912719.283760,-29.297,-35.156,-11.230,10.254
1789912719.287589,-25.391,-31.738,-12.207,21.484
1789912719.291417,-32.715,-28.320,-6.836,16.113
1789912719.295246,-30.762,-29.297,-8.301,4.883
1789912719.299074,-22.461,-30.762,-8.789,15.625
1789912719.302903,-19.043,-30.762,-8.301,23.926
1789912719.306731,-39.062,-32.715,-8.789,16.602
1789912719.310560,-49.316,-34.668,-7.324,14.160
1789912719.315582,-33.203,-31.250,-12.695,8.301
1789912719.319412,-35.156,-32.715,-19.531,6.836
1789912719.323242,-42.480,-32.715,-12.695,10.254
1789912719.327072,-39.062,-31.738,-8.789,2.441
1789912719.330902,-19.531,-31.250,-13.184,7.812
1789912719.334731,-27.344,-32.715,-10.254,12.695
1789912719.338561,-48.828,-38.086,-13.184,3.906
1789912719.342391,-44.434,-37.109,-21.484,-2.930
1789912719.346221,-44.434,-32.715,-24.902,-2.930
1789912719.350051,-45.410,-32.227,-25.391,-3.906
1789912719.353881,-48.828,-31.250,-21.484,2.930
1789912719.357710,-39.551,-33.691,-18.555,5.859
1789912719.362718,0.000,-37.598,-19.531,0.000
1789912719.366549,0.000,-35.645,-20.508,0.000
1789912719.370380,0.000,-41.016,-26.367,0.000
1789912719.374212,0.000,-40.527,-25.391,0.000
1789912719.378042,0.000,-32.227,-14.160,0.000
1789912719.381874,0.000,-31.738,-14.648,0.000
1789912719.385705,0.000,-36.133,-16.602,0.000
1789912719.389536,0.000,-34.180,-16.602,0.000
1789912719.393367,0.000,-35.645,-20.996,0.000
1789912719.397198,0.000,-36.621,-22.949,0.000
1789912719.401029,0.000,-36.133,-24.414,0.000
1789912719.404860,0.000,-35.156,-20.996,0.000
1789912719.409662,-36.621,-28.809,-16.602,12.207
1789912719.413495,-34.180,-27.832,-15.625,11.230
1789912719.417326,-45.410,-32.715,-16.113,10.742
1789912719.421159,-52.246,-36.133,-23.438,14.648
1789912719.424991,-42.969,-35.156,-26.855,13.672
1789912719.428823,-47.363,-36.133,-26.855,11.230
1789912719.432655,-51.270,-35.645,-24.902,23.438
1789912719.436487,-40.039,-33.203,-25.391,25.391
1789912719.440319,-37.109,-30.762,-20.508,16.113
1789912719.444151,-37.109,-30.762,-14.160,13.672
1789912719.447983,-23.438,-30.762,-19.531,10.254
1789912719.451815,-20.508,-31.250,-19.043,10.254
1789912719.456564,-32.227,-34.180,-23.438,4.883
1789912719.460397,-46.387,-39.062,-25.879,6.348
1789912719.464230,-51.270,-43.457,-25.391,10.742
1789912719.468063,-41.992,-41.016,-29.297,18.555
1789912719.471896,-43.457,-35.645,-28.320,15.625
1789912719.475729,-52.246,-29.785,-25.879,-1.953
1789912719.479562,-50.293,-29.785,-23.438,-2.441
1789912719.483395,-48.340,-33.691,-22.949,17.090
1789912719.487228,-41.016,-36.621,-28.320,29.297
1789912719.491061,-43.457,-38.086,-23.926,19.043
1789912719.494895,-44.922,-40.039,-23.926,16.602
1789912719.498728,-41.016,-40.039,-33.203,16.113
1789912719.503404,-41.016,-33.691,-31.250,13.672
1789912719.507238,-48.340,-34.180,-28.809,6.348
1789912719.511072,-58.594,-41.504,-27.832,-14.160
1789912719.514906,-51.270,-42.480,-29.297,-9.766
1789912719.518740,-42.969,-39.551,-29.297,11.230
1789912719.522574,-47.852,-40.527,-33.691,4.883
1789912719.526407,-50.781,-37.598,-39.551,-4.395
1789912719.530241,-51.270,-37.598,-35.156,6.836
1789912719.534075,-43.457,-43.945,-38.086,11.719
1789912719.537909,-38.086,-39.551,-37.109,23.438
1789912719.541743,-57.129,-32.715,-34.180,16.602
1789912719.545577,-64.941,-32.227,-25.391,0.977
1789912719.550212,0.000,-37.109,-23.438,11.719
1789912719.554047,0.000,-39.551,-31.250,2.441
1789912719.557882,0.000,-36.133,-28.809,-7.812
1789912719.561716,0.000,-41.016,-31.250,-10.254
1789912719.565551,0.000,-43.945,-35.156,-6.836
1789912719.569386,0.000,-43.457,-37.109,2.930
1789912719.573220,0.000,-43.457,-33.203,-3.906
1789912719.577055,0.000,-38.086,-30.762,0.000
1789912719.580890,0.000,-35.645,-34.180,6.836
1789912719.584724,0.000,-36.621,-32.227,9.277
1789912719.588559,0.000,-33.691,-27.832,13.672
1789912719.592394,0.000,-34.668,-26.855,14.160
1789912719.596910,-40.527,-38.574,-27.344,8.301
1789912719.600745,-30.762,-37.109,-26.855,2.930
1789912719.604580,-33.203,-34.180,-23.438,25.391
1789912719.608416,-42.969,-35.645,-24.902,20.996
1789912719.612251,-50.293,-35.156,-26.855,10.742
1789912719.616086,-49.316,-30.762,-24.902,33.203
1789912719.619922,-28.320,-24.902,-23.438,48.828
1789912719.623757,-18.555,-18.066,-16.602,53.711
1789912719.627593,-16.113,-20.996,-13.672,42.480
1789912719.631428,-9.277,-17.578,-12.695,58.594
1789912719.635263,-3.418,-7.324,-8.301,64.453
1789912719.639099,8.789,-4.883,-4.883,56.641
1789912719.643572,7.812,-1.953,2.930,61.035
1789912719.647408,1.953,-3.906,2.441,63.477
1789912719.651244,18.066,-3.906,-1.465,76.660
1789912719.655080,19.531,-1.465,0.488,75.684
1789912719.658916,17.090,-2.930,-3.418,63.965
1789912719.662752,20.020,-1.465,0.977,65.430
1789912719.666588,23.926,5.371,6.836,76.660
1789912719.670424,32.715,9.277,3.906,85.449
1789912719.674260,22.461,7.324,5.859,75.684
1789912719.678096,22.949,6.836,10.254,85.938
1789912719.681932,29.785,6.348,9.766,103.516
1789912719.685768,33.203,9.277,17.578,102.051
1789912719.690647,26.367,7.812,12.207,91.309
1789912719.694484,26.367,3.906,7.324,90.820
1789912719.698321,40.527,10.742,15.137,106.445
1789912719.702158,37.598,16.113,15.625,103.516
1789912719.705995,30.273,13.672,15.137,101.074
1789912719.709832,23.438,8.789,11.719,101.074
1789912719.713669,16.602,9.277,9.277,91.797
1789912719.717506,16.602,7.812,6.836,85.449
1789912719.721343,19.043,5.371,2.930,87.891
1789912719.725180,14.648,0.977,0.488,83.008
1789912719.729017,4.883,-7.324,-0.488,71.777
1789912719.732854,8.789,-5.371,7.324,84.473
1789912719.737644,26.367,3.906,7.812,89.355
1789912719.741482,16.113,9.277,4.395,75.195
1789912719.745320,-1.953,8.301,1.953,60.547
1789912719.749158,-5.371,4.395,0.977,49.805
1789912719.752996,-4.395,4.883,3.906,62.500
1789912719.756834,-13.184,-1.465,-4.883,68.848
1789912719.760672,-6.348,-2.930,-9.277,52.734
1789912719.764510,3.418,-5.371,-8.789,39.551
1789912719.768348,2.441,-11.719,-15.137,47.363
1789912719.772186,3.418,-11.719,-6.836,54.199
1789912719.776024,-6.348,-6.348,-1.953,46.875
1789912719.779861,-7.812,-5.371,-3.906,53.223
1789912719.784582,8.789,-8.301,-3.906,48.340
1789912719.788420,6.348,-10.254,-15.625,31.250
1789912719.792259,-20.020,-15.137,-19.043,23.438
1789912719.796098,-14.648,-16.113,-13.184,22.949
1789912719.799937,12.207,-16.602,-15.625,23.438
1789912719.803776,1.465,-20.996,-24.902,19.531
1789912719.807614,-35.645,-28.809,-32.227,4.395
1789912719.811453,-40.527,-28.809,-32.227,12.207
1789912719.815292,-29.297,-26.367,-29.785,32.227
1789912719.819130,-17.578,-26.367,-28.809,35.645
1789912719.822969,-18.555,-25.391,-30.762,22.949
1789912719.826808,-35.156,-33.691,-33.691,14.160
1789912719.831465,-45.898,-37.109,-34.180,12.207
1789912719.835304,-36.133,-35.156,-34.180,8.789
1789912719.839144,-27.344,-37.109,-38.086,-2.930
1789912719.842983,-46.387,-35.645,-41.016,-18.555
1789912719.846823,-46.387,-37.109,-41.016,-15.625
1789912719.850662,-30.273,-37.598,-39.062,-13.184
1789912719.854502,-41.016,-37.598,-38.086,-27.344
1789912719.858341,-59.570,-46.875,-40.039,-29.297
1789912719.862181,-57.617,-49.316,-37.598,-13.672
1789912719.866020,-48.828,-43.457,-36.621,-17.090
1789912719.869860,-45.898,-47.852,-41.016,-24.902
1789912719.873699,-55.664,-45.898,-47.363,-24.414
1789912719.878306,0.000,-43.457,-47.363,-29.297
1789912719.882146,0.000,-44.922,-44.434,-26.367
1789912719.885987,0.000,-42.969,-45.898,-26.855
1789912719.889827,0.000,-39.062,-39.062,-29.297
1789912719.893667,0.000,-35.645,-32.227,-24.414
1789912719.897507,0.000,-35.156,-34.668,-21.973
1789912719.901347,0.000,-35.156,-29.297,-14.160
1789912719.905188,0.000,-32.227,-33.691,-17.090
1789912719.909028,0.000,-36.133,-41.016,-25.879
1789912719.912868,0.000,-38.574,-38.574,-9.277
1789912719.916708,0.000,-39.551,-41.016,-5.371
1789912719.920549,0.000,-37.598,-41.016,-8.789
1789912719.923850,-71.777,-33.691,-34.180,-9.277
1789912719.927689,-53.711,-36.133,-32.227,-15.137
1789912719.931529,-41.016,-37.598,-35.156,-0.977
1789912719.935369,-52.246,-35.645,-34.180,8.301
1789912719.939209,-47.363,-34.668,-33.691,-12.207
1789912719.943048,-38.086,-41.504,-35.156,-27.344
1789912719.946888,-22.949,-44.434,-36.133,-16.113
1789912719.950728,-25.879,-36.621,-34.668,-8.301
1789912719.954567,-60.059,-30.762,-31.250,-20.508
1789912719.958407,-47.852,-29.785,-33.691,-24.902
1789912719.962247,-39.062,-30.273,-36.133,-24.414
1789912719.966087,-44.434,-34.180,-36.133,-17.578
1789912719.969702,-34.180,-34.180,-34.668,-18.066
1789912719.973542,-35.156,-33.691,-35.156,-28.320
1789912719.977381,-36.621,-34.668,-36.621,-30.273
1789912719.981221,-18.555,-33.691,-35.645,-20.508
1789912719.985061,-21.484,-38.086,-40.527,-13.184
1789912719.988900,-36.621,-42.480,-48.340,-15.137
1789912719.992740,-23.926,-38.574,-47.852,-25.391
1789912719.996579,-22.461,-35.645,-45.410,-29.785
1789912720.000419,-36.133,-34.180,-43.945,-20.020
1789912720.004258,-40.039,-31.250,-45.898,-17.090
1789912720.008098,-40.039,-38.086,-45.410,-13.184
1789912720.011937,-44.922,-40.527,-44.434,-12.207
1789912720.016432,-38.574,-37.109,-42.969,-13.184
1789912720.020272,-43.457,-38.086,-38.574,-19.531
1789912720.024112,-51.758,-39.062,-40.039,-27.832
1789912720.027952,-49.805,-39.551,-44.434,-25.879
1789912720.031792,-46.875,-47.363,-48.828,-21.484
1789912720.035632,-46.875,-52.734,-57.617,-33.203
1789912720.039473,-62.012,-56.152,-58.105,-46.875
1789912720.043313,-77.637,-55.176,-57.129,-41.992
1789912720.047153,-64.453,-52.246,-61.035,-33.691
1789912720.050993,-47.852,-52.246,-57.617,-36.621
1789912720.054833,-62.988,-53.223,-58.105,-41.504
1789912720.058673,-68.848,-48.828,-56.152,-43.945
1789912720.063544,-54.199,-44.922,-50.781,-38.574
1789912720.067385,-52.246,-48.828,-56.641,-27.344
1789912720.071226,-41.016,-50.781,-55.176,-27.344
1789912720.075068,-53.223,-41.016,-55.664,-45.898
1789912720.078908,-69.824,-38.574,-68.359,-63.965
1789912720.082750,-61.035,-46.387,-64.941,-53.223
1789912720.086591,-66.406,-47.363,-66.895,-59.570
1789912720.090432,-68.848,-42.969,-64.941,-69.336
1789912720.094273,-64.453,-40.039,-57.617,-62.500
1789912720.098114,-55.176,-47.363,-64.941,-69.824
1789912720.101955,-43.945,-44.922,-68.848,-63.477
1789912720.105796,-60.547,-32.715,-61.523,-68.848
1789912720.110587,-71.289,-44.434,-55.176,-83.984
1789912720.114429,-64.941,-52.734,-49.316,-68.359
1789912720.118271,-80.078,-47.852,-52.734,-63.965
1789912720.122113,-97.168,-50.781,-60.547,-70.312
1789912720.125955,-80.566,-48.828,-56.152,-60.059
1789912720.129797,-70.312,-46.387,-53.711,-55.176
1789912720.133638,-62.500,-48.340,-51.270,-51.758
1789912720.137480,-44.434,-40.527,-45.410,-39.551
1789912720.141322,-47.852,-39.062,-47.852,-30.762
1789912720.145164,-42.969,-39.551,-42.969,-27.344
1789912720.149006,-27.344,-37.109,-40.527,-27.344
1789912720.152848,-28.320,-38.574,-43.457,-32.715
1789912720.157558,-37.598,-40.039,-41.504,-38.574
1789912720.161401,-59.570,-41.016,-40.527,-32.227
1789912720.165243,-50.781,-36.133,-46.387,-21.973
1789912720.169086,-36.133,-33.691,-44.922,-35.645
1789912720.172929,-40.527,-35.645,-43.945,-59.082
1789912720.176771,-38.574,-40.039,-46.387,-45.410
1789912720.180614,-26.367,-44.434,-41.016,-25.879
1789912720.184457,-27.344,-42.480,-37.109,-16.602
1789912720.188299,-45.410,-43.457,-40.039,-11.719
1789912720.192142,-51.758,-47.363,-42.969,-23.438
1789912720.195984,-47.363,-48.828,-43.945,-34.668
1789912720.199827,-39.551,-42.969,-45.410,-27.832
1789912720.204472,-30.273,-39.062,-45.410,-44.434
1789912720.208315,-47.363,-41.992,-53.223,-52.246
1789912720.212158,-70.801,-48.340,-54.199,-46.875
1789912720.216002,-50.781,-46.387,-45.898,-35.645
1789912720.219845,-44.434,-42.969,-47.852,-25.391
1789912720.223688,-58.594,-45.898,-50.293,-34.668
1789912720.227532,-68.359,-50.781,-39.062,-42.969
1789912720.231375,-51.270,-54.688,-27.832,-42.969
1789912720.235218,-36.621,-46.875,-29.297,-32.227
1789912720.239062,-38.086,-39.551,-34.180,-33.691
1789912720.242905,-36.133,-44.922,-36.621,-34.180
1789912720.246748,-41.992,-42.480,-36.133,-27.832
1789912720.251324,-50.781,-36.133,-31.738,-24.414
1789912720.255168,-54.199,-31.250,-36.133,-28.809
1789912720.259012,-42.969,-28.320,-34.668,-26.367
1789912720.262856,-41.992,-33.203,-38.086,-21.484
1789912720.266700,-30.762,-36.133,-41.504,-31.738
1789912720.270544,-20.996,-33.691,-37.598,-32.715
1789912720.274388,-41.016,-28.320,-31.250,-26.367
1789912720.278232,-42.969,-26.367,-30.273,-18.555
1789912720.282076,-21.973,-22.461,-33.691,-15.137
1789912720.285919,-10.254,-20.020,-33.691,-20.996
1789912720.289763,-12.207,-20.508,-33.203,-32.715
1789912720.293607,2.441,-20.020,-30.762,-43.457
1789912720.298168,6.836,-13.672,-29.297,-24.902
1789912720.302012,-14.160,-10.254,-25.391,-6.348
1789912720.305857,-17.090,-11.230,-20.996,-18.066
1789912720.309702,-13.672,-12.207,-20.508,-13.184
1789912720.313546,-2.930,-14.160,-25.391,3.418
1789912720.317391,12.207,-11.230,-24.902,-9.766
1789912720.321235,7.812,-6.836,-20.996,-8.789
1789912720.325080,2.441,-8.301,-19.531,2.930
1789912720.328924,2.441,-8.301,-23.438,-5.859
1789912720.332769,1.953,-8.301,-22.949,0.000
1789912720.336613,-6.836,-2.930,-14.160,7.324
1789912720.340458,-13.672,2.441,-11.230,-1.465
1789912720.344927,-7.812,-0.488,-18.066,-0.977
1789912720.348772,-1.465,-4.395,-17.090,12.695
1789912720.352617,-1.465,-3.906,-8.301,10.254
1789912720.356462,-5.371,1.953,-12.695,3.418
1789912720.360307,-3.906,1.465,-19.531,-2.441
1789912720.364152,5.371,-6.348,-20.020,-14.648
1789912720.367997,13.184,-7.812,-20.020,1.953
1789912720.371842,6.836,-10.254,-26.367,14.648
1789912720.375687,7.324,-15.625,-26.855,4.395
1789912720.379532,2.930,-18.555,-27.344,11.719
1789912720.383377,3.418,-20.020,-29.785,25.879
1789912720.387223,1.465,-13.184,-30.762,6.348
1789912720.391648,-24.902,-12.695,-30.762,-21.484
1789912720.395494,-31.250,-20.508,-39.551,-27.832
1789912720.399339,-23.926,-21.484,-49.316,-17.090
1789912720.403184,-31.250,-17.090,-43.457,-13.672
1789912720.407030,-37.109,-20.996,-40.039,-30.273
1789912720.410876,-20.020,-22.461,-47.363,-25.391
1789912720.414721,-2.930,-19.043,-53.711,-23.438
1789912720.418567,-15.625,-1.465,-52.246,-36.621
1789912720.422412,-22.949,0.977,-49.805,-36.133
1789912720.426258,-8.789,-20.508,-51.270,-27.344
1789912720.430103,-15.137,-19.043,-53.223,-28.320
1789912720.433949,-37.109,-20.020,-56.641,-20.996
1789912720.438707,-44.434,-20.020,-52.734,-9.766
1789912720.442554,-30.762,-20.020,-55.664,-22.949
1789912720.446400,-20.996,-19.043,-61.523,-26.367
1789912720.450246,-30.273,-13.184,-59.082,-22.949
1789912720.454093,-44.434,-23.926,-57.129,-31.250
1789912720.457939,-44.922,-26.367,-51.270,-24.902
1789912720.461785,-36.133,-15.137,-60.547,-14.160
1789912720.465631,-27.832,-15.137,-58.105,-17.090
1789912720.469478,-28.320,-21.484,-50.293,-27.832
1789912720.473324,-37.598,-26.855,-57.617,-36.621
1789912720.477170,-31.250,-28.320,-58.105,-34.668
1789912720.481016,-6.348,-23.926,-58.594,-29.297
1789912720.485719,-3.418,-20.508,-61.035,-32.227
1789912720.489566,-18.066,-24.414,-60.059,-33.203
1789912720.493413,-27.344,-34.668,-67.383,-37.598
1789912720.497260,-23.926,-36.133,-70.801,-35.645
1789912720.501107,-20.996,-33.691,-52.734,-22.949
1789912720.504954,-36.621,-38.574,-54.688,-29.785
1789912720.508801,-45.410,-43.457,-73.730,-39.551
1789912720.512648,-40.527,-40.527,-73.730,-31.250
1789912720.516495,-35.156,-37.598,-70.801,-19.043
1789912720.520342,-44.922,-47.852,-75.684,-32.227
1789912720.524189,-42.969,-49.805,-71.777,-49.316
1789912720.528036,-29.297,-40.527,-61.035,-30.762
1789912720.532676,-28.809,-51.758,-67.383,-21.484
1789912720.536523,-41.504,-63.477,-73.730,-24.414
1789912720.540371,-39.551,-46.387,-63.965,-25.879
1789912720.544219,-32.715,-33.203,-59.570,-35.645
1789912720.548066,-22.949,-31.250,-61.035,-53.711
1789912720.551914,-12.695,-33.691,-63.965,-49.805
1789912720.555762,-31.250,-34.668,-58.105,-41.016
1789912720.559609,-44.922,-40.039,-56.152,-39.062
1789912720.563457,-38.574,-34.180,-64.453,-20.020
1789912720.567304,-25.879,-24.414,-60.547,-6.836
1789912720.571152,-33.203,-36.621,-59.082,-24.902
1789912720.575000,-31.738,-37.598,-62.500,-35.156
1789912720.579587,-19.531,-31.250,-61.523,-21.973
1789912720.583436,-18.066,-39.551,-61.035,-24.414
1789912720.587284,-25.391,-36.133,-59.570,-38.574
1789912720.591132,-39.551,-40.527,-62.012,-42.480
1789912720.594980,-35.645,-45.898,-58.594,-32.227
1789912720.598828,-17.578,-40.039,-55.176,-21.973
1789912720.602676,-14.648,-34.668,-60.059,-27.832
1789912720.606525,-25.879,-29.297,-53.223,-22.461
1789912720.610373,-23.438,-33.203,-52.246,-22.949
1789912720.614221,-20.020,-38.086,-52.246,-39.551
1789912720.618069,-21.973,-36.133,-49.316,-30.762
1789912720.621917,-29.297,-32.227,-52.734,-23.926
1789912720.626448,-43.945,-31.738,-51.758,-24.414
1789912720.630297,-48.340,-34.668,-47.363,-13.184
1789912720.634146,-24.902,-35.156,-45.410,-5.371
1789912720.637994,-19.043,-30.273,-46.875,-26.367
1789912720.641843,-18.066,-26.367,-51.270,-38.086
1789912720.645692,-3.418,-23.926,-49.805,-37.598
1789912720.649541,-8.301,-26.367,-47.852,-42.480
1789912720.653389,-21.973,-27.344,-50.781,-29.785
1789912720.657238,-26.855,-29.785,-51.758,-38.086
1789912720.661087,-37.109,-37.109,-48.340,-58.105
1789912720.664936,-44.434,-42.480,-50.293,-42.480
1789912720.668784,-27.344,-41.016,-51.270,-39.062
1789912720.673262,-32.227,-39.551,-45.898,-44.434
1789912720.677111,-46.387,-39.062,-47.363,-40.527
1789912720.680961,-41.992,-41.504,-47.363,-45.410
1789912720.684810,-29.785,-47.852,-44.434,-45.898
1789912720.688659,-28.320,-42.969,-43.945,-45.898
1789912720.692508,-38.086,-42.480,-45.410,-56.641
1789912720.696357,-41.016,-45.898,-44.922,-49.805
1789912720.700207,-37.109,-49.805,-48.340,-49.805
1789912720.704056,-42.969,-46.387,-48.828,-59.570
1789912720.707905,-58.105,-43.945,-46.387,-52.734
1789912720.711754,-43.457,-44.434,-41.504,-45.410
1789912720.715604,-33.203,-48.828,-45.898,-56.641
1789912720.720029,-49.805,-53.711,-52.246,-65.918
1789912720.723879,-57.617,-53.223,-51.270,-68.848
1789912720.727728,-45.898,-53.223,-45.410,-66.406
1789912720.731578,-41.504,-46.387,-43.457,-59.570
1789912720.735428,-47.852,-48.340,-46.875,-65.918
1789912720.739277,-61.523,-57.617,-45.898,-78.613
1789912720.743127,-67.871,-61.035,-43.457,-70.312
1789912720.746977,-59.570,-60.547,-47.852,-73.730
1789912720.750826,-31.250,-51.758,-50.781,-83.008
1789912720.754676,-35.156,-49.316,-43.457,-82.520
1789912720.758526,-60.059,-55.176,-44.922,-93.262
1789912720.762376,-46.387,-57.129,-47.852,-90.332
1789912720.766760,-41.016,-62.012,-50.781,-73.730
1789912720.770610,-52.246,-61.035,-55.176,-74.219
1789912720.774460,-55.664,-55.176,-50.781,-83.496
1789912720.778310,-55.176,-56.641,-55.176,-87.402
1789912720.782160,-50.293,-56.152,-56.641,-86.426
1789912720.786010,-50.781,-57.129,-51.270,-83.496
1789912720.789860,-63.965,-59.082,-54.688,-88.379
1789912720.793710,-62.988,-57.617,-56.152,-86.426
1789912720.797561,-46.387,-60.059,-51.758,-84.961
1789912720.801411,-47.363,-57.617,-51.758,-87.891
1789912720.805261,-47.363,-52.246,-49.316,-84.473
1789912720.809111,-42.480,-52.246,-46.875,-86.914
1789912720.813811,-60.059,-52.246,-41.992,-81.543
1789912720.817662,-62.500,-50.781,-44.434,-73.730
1789912720.821512,-52.734,-46.387,-49.316,-87.402
1789912720.825363,-52.734,-47.363,-52.734,-105.469
1789912720.829214,-47.363,-50.293,-51.758,-106.445
1789912720.833065,-37.109,-47.852,-48.828,-95.215
1789912720.836915,-41.992,-49.316,-52.734,-85.449
1789912720.840766,-62.988,-58.594,-57.617,-105.957
1789912720.844617,-59.570,-55.176,-61.035,-111.816
1789912720.848468,-33.203,-52.734,-54.688,-73.730
1789912720.852318,-40.527,-59.570,-44.922,-72.754
1789912720.856169,-67.871,-59.570,-47.363,-103.516
1789912720.860813,-76.172,-56.641,-47.852,-105.469
1789912720.864664,-75.684,-56.152,-41.016,-92.285
1789912720.868516,-75.684,-57.129,-34.668,-89.844
1789912720.872367,-84.473,-61.035,-32.227,-88.867
1789912720.876218,-89.355,-56.641,-30.762,-96.680
1789912720.880070,-77.148,-47.852,-31.250,-105.469
1789912720.883921,-69.336,-52.734,-34.668,-107.910
1789912720.887772,-75.195,-56.152,-26.855,-108.887
1789912720.891623,-83.984,-55.664,-22.949,-101.074
1789912720.895475,-81.055,-54.688,-30.273,-100.586
1789912720.899326,-57.617,-51.758,-30.762,-91.797
1789912720.903177,-54.199,-50.293,-35.156,-83.984
1789912720.907788,-66.406,-57.129,-37.598,-95.703
1789912720.911640,-50.781,-62.988,-40.039,-104.980
1789912720.915492,-57.617,-56.641,-40.039,-96.680
1789912720.919343,-67.383,-55.664,-36.621,-98.633
1789912720.923195,-57.129,-54.688,-36.133,-112.305
1789912720.927047,-65.918,-44.434,-33.691,-120.605
1789912720.930899,-72.266,-55.176,-37.109,-115.723
1789912720.934751,-62.500,-73.242,-40.527,-110.352
1789912720.938603,-65.918,-64.453,-36.621,-118.164
1789912720.942455,-73.730,-56.152,-37.598,-109.863
1789912720.946307,-56.152,-57.129,-40.527,-104.980
1789912720.950159,-39.551,-53.711,-34.668,-103.516
1789912720.954692,-50.293,-46.387,-38.086,-105.469
1789912720.958545,-62.988,-41.992,-42.969,-116.211
1789912720.962397,-42.969,-41.992,-39.062,-111.816
1789912720.966249,-21.484,-41.992,-39.551,-101.074
1789912720.970102,-40.039,-41.504,-41.016,-96.191
1789912720.973954,-42.969,-33.691,-41.504,-99.609
1789912720.977807,-20.508,-30.273,-40.039,-98.633
1789912720.981659,-1.465,-31.250,-37.598,-85.938
1789912720.985512,-9.766,-27.832,-33.203,-86.914
1789912720.989364,-27.344,-27.832,-31.738,-93.750
1789912720.993216,-24.414,-24.414,-32.227,-77.637
1789912720.997069,-23.438,-22.949,-36.621,-78.125
1789912721.001555,-10.254,-23.438,-36.133,-77.148
1789912721.005408,-10.254,-15.137,-31.250,-85.938
1789912721.009261,-11.719,-10.254,-27.832,-83.496
1789912721.013114,6.836,-3.906,-26.855,-55.664
1789912721.016967,5.371,-4.395,-32.227,-54.688
1789912721.020819,-10.742,-10.742,-35.156,-66.895
1789912721.024672,-18.066,-7.812,-28.809,-70.801
1789912721.028525,-15.625,-13.672,-23.438,-66.895
1789912721.032378,-9.766,-15.625,-32.715,-72.266
1789912721.036231,-20.020,-10.742,-34.180,-83.984
1789912721.040084,-21.484,-9.277,-29.297,-83.984
1789912721.043936,-19.043,-12.207,-32.227,-88.867
1789912721.048383,-23.438,-20.020,-34.180,-87.891
1789912721.052237,-25.391,-20.508,-37.598,-85.938
1789912721.056090,-30.762,-12.207,-37.109,-98.145
1789912721.059943,-31.738,-18.066,-32.715,-103.516
1789912721.063797,0.000,-24.902,-36.133,-71.777
1789912721.067650,18.066,-9.766,-42.480,-63.965
1789912721.071503,-45.410,-8.301,-48.828,-112.305
1789912721.075356,-73.730,-25.879,-61.035,-122.559
1789912721.079210,-53.223,-30.762,-70.312,-134.766
1789912721.083063,-50.781,-25.879,-75.195,-141.602
1789912721.086916,-46.875,-28.809,-80.566,-145.020
1789912721.090770,-43.457,-30.762,-81.055,-144.043
1789912721.095508,-42.969,-23.926,-81.055,-145.508
1789912721.099362,-37.109,-20.996,-83.496,-150.879
1789912721.103216,-36.621,-21.973,-79.102,-137.207
1789912721.107070,-54.199,-30.762,-80.078,-143.555
1789912721.110924,-68.359,-31.738,-90.332,-144.531
1789912721.114778,-51.270,-35.645,-87.402,-134.766
1789912721.118632,-41.016,-39.062,-82.520,-123.047
1789912721.122486,-40.527,-36.621,-84.473,-131.836
1789912721.126340,-43.457,-41.992,-87.402,-157.227
1789912721.130193,-57.129,-45.410,-90.820,-145.020
1789912721.134048,-54.199,-45.898,-89.355,-145.508
1789912721.137901,-52.246,-43.945,-85.449,-173.340
1789912721.142242,-55.176,-44.922,-83.008,-164.551
1789912721.146097,-52.246,-49.316,-83.984,-144.043
1789912721.149951,-44.434,-41.016,-85.938,-129.883
1789912721.153805,-53.711,-51.270,-81.543,-128.906
1789912721.157660,-68.848,-64.453,-76.660,-142.090
1789912721.161514,-58.594,-58.594,-76.660,-142.578
1789912721.165368,-57.617,-55.176,-73.242,-136.230
1789912721.169222,-65.918,-54.688,-77.637,-137.207
1789912721.173077,-67.871,-52.246,-78.125,-151.855
1789912721.176931,-66.406,-45.898,-72.266,-147.461
1789912721.180785,-62.012,-46.875,-76.660,-135.254
1789912721.184639,-55.176,-50.781,-75.684,-139.648
1789912721.189290,-56.641,-53.711,-74.219,-142.090
1789912721.193145,-58.105,-53.711,-76.172,-140.625
1789912721.197000,-59.082,-56.152,-80.078,-141.602
1789912721.200854,-44.434,-61.035,-78.125,-140.625
1789912721.204709,-45.898,-59.082,-77.637,-138.672
1789912721.208564,-63.477,-53.711,-75.195,-138.672
1789912721.212419,-58.594,-56.152,-67.383,-134.766
1789912721.216274,-43.457,-55.664,-69.824,-133.789
1789912721.220129,-31.250,-40.527,-68.848,-136.719
1789912721.223983,-42.969,-49.316,-64.453,-139.648
1789912721.227838,-52.734,-60.547,-66.406,-142.090
1789912721.231693,-53.711,-56.152,-68.359,-130.371
1789912721.236279,-59.570,-54.199,-67.383,-123.047
1789912721.240134,-67.871,-58.105,-72.266,-133.301
1789912721.243990,-77.637,-64.453,-71.777,-141.113
1789912721.247845,-53.711,-58.105,-61.523,-129.883
1789912721.251700,-36.133,-47.852,-62.012,-124.512
1789912721.255556,-36.133,-53.711,-66.406,-134.766
1789912721.259411,-32.715,-54.688,-62.988,-127.441
1789912721.263266,-48.828,-54.199,-60.059,-116.699
1789912721.267122,-51.270,-58.105,-58.594,-111.328
1789912721.270977,-62.500,-65.918,-66.406,-121.094
1789912721.274832,-68.848,-68.359,-65.918,-147.461
1789912721.278688,-56.641,-62.988,-59.570,-147.949
1789912721.283222,-45.898,-52.734,-62.012,-123.047
1789912721.287078,-62.500,-52.734,-60.059,-122.070
1789912721.290934,-65.918,-61.523,-57.617,-130.371
1789912721.294789,-47.363,-58.105,-55.664,-119.629
1789912721.298645,-39.551,-56.152,-56.152,-110.840
1789912721.302501,-43.945,-53.223,-51.758,-111.816
1789912721.306357,-57.129,-54.199,-41.992,-120.117
1789912721.310213,-45.898,-55.176,-47.852,-129.395
1789912721.314069,-37.598,-49.805,-60.059,-119.629
1789912721.317924,-51.758,-55.176,-54.199,-113.770
1789912721.321780,-57.617,-58.105,-50.781,-117.188
1789912721.325636,-58.594,-55.664,-53.223,-119.141
1789912721.330461,-53.223,-58.594,-52.246,-114.746
1789912721.334317,-50.781,-59.082,-58.105,-114.746
1789912721.338174,-67.871,-59.082,-64.453,-137.207
1789912721.342030,-78.613,-62.012,-58.105,-131.836
1789912721.345887,-74.707,-62.988,-48.340,-112.793
1789912721.349743,-73.242,-63.477,-51.758,-111.816
1789912721.353600,-67.383,-55.176,-56.641,-115.723
1789912721.357456,-73.242,-62.012,-52.246,-119.629
1789912721.361313,-79.102,-80.078,-50.781,-122.070
1789912721.365169,-77.148,-71.777,-55.664,-124.023
1789912721.369026,-54.199,-59.082,-54.199,-112.305
1789912721.372882,-53.223,-60.059,-48.828,-115.234
1789912721.377315,-66.406,-55.176,-50.781,-113.770
1789912721.381172,-57.129,-49.805,-50.781,-101.074
1789912721.385029,-41.016,-52.246,-43.945,-92.285
1789912721.388886,-49.316,-58.105,-44.922,-100.098
1789912721.392743,-69.824,-63.477,-50.781,-123.047
1789912721.396600,-61.523,-58.594,-55.176,-122.070
1789912721.400456,-50.293,-58.594,-60.547,-113.770
1789912721.404313,-62.012,-60.547,-54.199,-113.770
1789912721.408170,-72.266,-62.988,-51.758,-111.816
1789912721.412027,-75.684,-63.965,-54.688,-111.328
1789912721.415884,-65.918,-58.105,-52.734,-100.586
1789912721.419741,-57.129,-59.570,-60.059,-94.727
1789912721.424457,-66.895,-60.059,-62.012,-113.770
1789912721.428315,-53.711,-55.176,-53.711,-120.605
1789912721.432172,-44.434,-53.223,-53.223,-110.840
1789912721.436029,-42.480,-54.199,-53.711,-104.004
1789912721.439887,-48.340,-58.594,-53.711,-117.188
1789912721.443744,-68.359,-65.918,-48.828,-124.023
1789912721.447602,-68.359,-53.711,-44.434,-109.375
1789912721.451459,-53.223,-40.039,-45.898,-97.656
1789912721.455317,-70.312,-51.270,-46.875,-109.863
1789912721.459174,-82.031,-62.012,-46.387,-120.605
1789912721.463032,-65.918,-69.336,-42.480,-111.328
1789912721.466889,-66.406,-67.383,-47.363,-112.793
1789912721.471229,-70.801,-59.082,-51.758,-126.953
1789912721.475086,-63.965,-57.129,-47.363,-122.559
1789912721.478944,-67.871,-58.105,-41.992,-115.723
1789912721.482802,-57.129,-51.758,-44.434,-102.051
1789912721.486660,-59.082,-48.828,-41.504,-92.285
1789912721.490518,-74.707,-55.176,-39.062,-96.680
1789912721.494375,-62.012,-57.617,-43.945,-98.145
1789912721.498233,-52.734,-58.105,-43.457,-95.703
1789912721.502091,-51.758,-49.805,-38.574,-86.426
1789912721.505949,-52.734,-50.293,-31.738,-76.660
1789912721.509807,-54.199,-46.875,-38.086,-70.312
1789912721.513664,-39.551,-44.434,-46.875,-75.195
1789912721.517962,-53.711,-66.895,-47.852,-92.773
1789912721.521820,-65.918,-67.383,-43.457,-100.098
1789912721.525678,-50.293,-53.223,-35.645,-101.562
1789912721.529536,-46.387,-55.176,-41.504,-99.121
1789912721.533394,-51.270,-60.547,-38.574,-86.426
1789912721.537252,-51.270,-59.082,-37.109,-83.984
1789912721.541110,-56.641,-55.176,-42.480,-98.145
1789912721.544968,-71.289,-51.758,-41.992,-104.980
1789912721.548826,-61.523,-41.992,-41.016,-90.820
1789912721.552685,-56.152,-40.039,-42.969,-88.867
1789912721.556543,-52.734,-51.270,-42.969,-90.332
1789912721.560401,-37.598,-58.105,-37.109,-79.102
1789912721.564988,-50.293,-53.711,-29.785,-83.984
1789912721.568846,-71.777,-46.875,-19.531,-89.844
1789912721.572705,-83.984,-50.293,-27.832,-100.586
1789912721.576563,-67.871,-48.828,-35.645,-96.191
1789912721.580422,-48.828,-43.945,-18.555,-72.754
1789912721.584280,-64.453,-45.898,-3.906,-74.219
1789912721.588139,-64.941,-50.781,-3.906,-88.867
1789912721.591998,-53.223,-53.711,-17.578,-81.543
1789912721.595856,-46.875,-46.387,-17.578,-58.105
1789912721.599715,-34.668,-33.691,3.418,-40.527
1789912721.603573,-32.227,-45.898,-3.418,-40.039
1789912721.607432,-36.133,-46.387,-20.020,-45.410
1789912721.611965,-37.109,-40.039,-13.184,-56.152
1789912721.615824,-38.086,-39.551,-10.254,-49.316
1789912721.619683,-32.227,-36.621,-9.277,-35.645
1789912721.623542,-26.367,-28.320,-2.441,-35.156
1789912721.627401,-17.090,-21.973,0.977,-33.691
1789912721.631260,0.488,-9.277,3.418,-25.879
1789912721.635119,-0.488,-8.301,0.977,-20.508
1789912721.638978,2.441,-21.973,0.977,-27.344
1789912721.642837,11.230,-19.531,4.883,-22.949
1789912721.646696,12.695,-9.766,0.488,-10.254
1789912721.650555,26.855,-3.418,-0.977,0.000
1789912721.654414,37.598,0.000,5.371,0.488
1789912721.658900,18.066,6.348,9.766,-1.465
1789912721.662760,21.484,8.301,16.602,10.742
1789912721.666619,41.504,13.184,20.996,26.367
1789912721.670479,40.039,18.555,18.066,19.531
1789912721.674338,40.527,14.160,11.230,11.719
1789912721.678197,38.574,3.906,10.254,3.906
1789912721.682057,37.109,6.836,12.695,1.465
1789912721.685916,33.203,3.418,18.066,9.766
1789912721.689775,19.043,0.000,10.742,13.184
1789912721.693635,12.695,4.883,5.371,14.160
1789912721.697494,10.254,-2.930,13.672,14.648
1789912721.701354,34.668,-8.301,9.277,25.879
1789912721.705793,23.926,-9.277,5.371,9.277
1789912721.709652,-6.348,-3.906,1.953,-7.324
1789912721.713512,9.277,0.488,3.418,0.000
1789912721.717372,13.672,-5.371,7.324,-4.883
1789912721.721232,13.672,-10.742,-2.441,-10.742
1789912721.725091,13.672,-5.859,-13.672,-8.301
1789912721.728951,3.418,-4.883,-14.160,-2.441
1789912721.732811,13.672,-1.953,-13.184,12.695
1789912721.736671,15.137,-4.395,-15.137,6.348
1789912721.740530,-3.418,-13.184,-14.160,-16.602
1789912721.744390,-16.113,-16.602,-17.090,-17.578
1789912721.748250,-8.789,-24.414,-23.438,-16.602
1789912721.752645,-1.465,-24.902,-19.531,-20.020
1789912721.756505,-2.441,-18.555,-16.602,-24.414
1789912721.760365,-9.766,-20.996,-16.113,-34.180
1789912721.764225,-11.230,-20.996,-17.578,-37.109
1789912721.768085,-2.930,-17.090,-26.367,-27.832
1789912721.771945,-13.672,-18.066,-27.344,-19.043
1789912721.775806,-36.133,-20.996,-27.344,-20.508
1789912721.779666,-45.898,-23.438,-28.320,-30.762
1789912721.783526,-34.668,-28.809,-33.203,-27.344
1789912721.787386,-30.273,-32.227,-28.320,-34.180
1789912721.791246,-33.203,-30.762,-21.973,-49.316
1789912721.795106,-28.809,-35.156,-29.297,-43.945
1789912721.799459,-22.949,-36.621,-31.738,-37.598
1789912721.803319,-36.133,-35.156,-30.273,-41.016
1789912721.807180,-47.852,-33.691,-27.344,-38.574
1789912721.811040,-43.457,-36.133,-29.785,-41.504
1789912721.814901,-36.621,-41.992,-36.133,-49.805
1789912721.818761,-29.297,-36.621,-27.344,-50.781
1789912721.822622,-36.621,-33.203,-26.855,-47.363
1789912721.826482,-42.480,-42.480,-30.273,-48.828
1789912721.830343,-42.969,-46.875,-28.809,-42.480
1789912721.834203,-35.645,-48.340,-31.738,-52.734
1789912721.838063,-42.480,-45.410,-34.180,-65.430
1789912721.841924,-61.523,-44.922,-37.598,-63.965
1789912721.846240,-56.152,-43.945,-35.645,-63.965
1789912721.850101,-46.387,-42.480,-36.621,-60.059
1789912721.853961,-53.223,-52.734,-36.621,-58.105
1789912721.857822,-65.430,-55.176,-40.039,-64.453
1789912721.861683,-71.289,-52.246,-43.945,-67.383
1789912721.865544,-62.012,-50.781,-36.133,-63.477
1789912721.869404,-56.152,-48.828,-35.156,-58.594
1789912721.873265,-62.988,-41.992,-41.016,-66.895
1789912721.877126,-60.547,-51.758,-37.598,-77.637
1789912721.880986,-51.270,-52.734,-31.250,-67.871
1789912721.884847,-42.969,-46.387,-33.691,-69.336
1789912721.888708,-48.828,-53.711,-39.062,-74.707
1789912721.892984,-46.875,-51.270,-40.039,-64.941
1789912721.896845,-41.992,-39.062,-33.691,-60.059
1789912721.900706,-43.945,-36.133,-26.367,-55.176
1789912721.904567,-50.293,-38.574,-24.902,-53.711
1789912721.908428,-39.551,-39.551,-25.879,-68.359
1789912721.912289,-19.043,-38.574,-30.762,-62.012
1789912721.916150,-27.832,-26.367,-31.250,-49.805
1789912721.920011,-42.480,-34.668,-23.438,-60.547
1789912721.923872,-49.316,-47.363,-18.555,-55.176
1789912721.927733,-41.504,-38.574,-20.996,-39.551
1789912721.931594,-34.180,-37.109,-21.973,-43.945
1789912721.935455,-49.316,-36.133,-20.996,-52.734
1789912721.939997,-44.434,-34.668,-20.020,-65.430
1789912721.943859,-41.504,-36.133,-21.484,-70.801
1789912721.947720,-51.758,-34.668,-16.602,-61.523
1789912721.951581,-51.758,-35.645,-20.508,-55.176
1789912721.955443,-56.641,-39.062,-24.414,-57.617
1789912721.959304,-54.688,-42.480,-27.832,-59.082
1789912721.963166,-54.199,-41.504,-26.367,-72.266
1789912721.967027,-50.781,-42.480,-24.414,-77.148
1789912721.970888,-42.969,-43.945,-29.297,-70.312
1789912721.974750,-52.734,-45.898,-30.762,-61.523
1789912721.978611,-62.988,-46.875,-27.832,-50.293
1789912721.982473,-52.246,-47.852,-23.926,-55.664
1789912721.987275,-45.410,-42.969,-23.926,-67.871
1789912721.991137,-47.363,-40.527,-26.367,-70.312
1789912721.994999,-52.734,-41.992,-23.438,-69.336
1789912721.998861,-53.223,-44.434,-16.113,-60.059
1789912722.002723,-38.086,-44.922,-22.461,-37.109
1789912722.006585,-56.152,-45.410,-34.180,-45.410
1789912722.010447,-70.312,-47.363,-35.645,-66.895
1789912722.014309,-62.012,-47.852,-29.785,-64.453
1789912722.018171,-60.059,-49.805,-25.391,-60.059
1789912722.022033,-55.664,-48.340,-24.414,-56.152
1789912722.025895,-53.223,-44.922,-21.973,-66.406
1789912722.029757,-52.734,-44.434,-23.438,-71.777
1789912722.034207,-20.508,-50.781,-31.250,-47.852
1789912722.038069,-38.574,-48.340,-20.996,-40.039
1789912722.041932,-94.727,-41.504,-17.578,-54.688
1789912722.045794,-91.309,-47.852,-36.621,-58.105
1789912722.049656,-69.336,-57.129,-42.969,-57.617
1789912722.053519,-62.988,-55.664,-40.039,-65.918
1789912722.057381,-56.152,-48.340,-33.203,-61.035
1789912722.061243,-37.109,-47.363,-31.250,-49.316
1789912722.065106,-27.832,-43.457,-32.227,-41.016
1789912722.068968,-32.715,-32.227,-26.855,-32.715
1789912722.072830,-48.340,-42.969,-25.879,-36.621
1789912722.076693,-55.664,-58.594,-25.879,-43.457
1789912722.081102,-47.363,-50.293,-24.902,-36.621
1789912722.084965,-46.387,-41.992,-27.832,-25.391
1789912722.088827,-54.199,-44.434,-24.414,-39.551
1789912722.092690,-59.570,-41.992,-27.832,-55.664
1789912722.096553,-63.477,-39.551,-28.320,-54.199
1789912722.100415,-51.270,-36.133,-25.391,-50.781
1789912722.104278,-42.969,-38.086,-26.367,-56.641
1789912722.108141,-58.105,-43.945,-26.367,-56.152
1789912722.112003,-54.199,-42.480,-35.156,-42.969
1789912722.115866,-51.758,-44.434,-36.133,-52.246
1789912722.119729,-62.988,-47.852,-28.809,-54.199
1789912722.123591,-76.172,-45.898,-29.297,-48.828
1789912722.127956,-85.449,-45.898,-32.715,-61.035
1789912722.131819,-66.895,-51.270,-31.250,-67.383
1789912722.135682,-51.758,-48.340,-30.762,-62.012
1789912722.139545,-68.359,-49.805,-31.250,-66.406
1789912722.143408,-82.031,-52.734,-28.809,-72.754
1789912722.147271,-71.289,-41.016,-25.879,-67.871
1789912722.151134,-55.664,-37.598,-28.320,-55.176
1789912722.154997,-69.336,-49.805,-36.133,-58.594
1789912722.158860,-92.285,-52.734,-38.574,-70.801
1789912722.162723,-77.637,-44.922,-33.691,-66.406
1789912722.166586,-68.848,-47.363,-31.250,-66.895
1789912722.170449,-82.520,-53.223,-33.691,-75.684
1789912722.174775,-79.102,-46.387,-33.691,-63.965
1789912722.178638,-63.965,-44.922,-28.320,-47.852
1789912722.182501,-61.523,-48.828,-27.344,-37.109
1789912722.186365,-68.359,-46.387,-35.156,-52.246
1789912722.190228,-82.520,-45.898,-34.180,-67.871
1789912722.194091,-81.055,-42.480,-31.738,-56.152
1789912722.197954,-79.590,-44.922,-34.180,-42.480
1789912722.201818,-81.543,-50.781,-30.273,-31.738
1789912722.205681,-64.453,-50.781,-26.855,-51.758
1789912722.209544,-53.711,-46.875,-33.691,-72.266
1789912722.213408,-55.664,-39.551,-25.391,-69.336
1789912722.217271,-49.316,-34.180,-20.996,-59.570
1789912722.221558,-43.945,-33.203,-23.438,-59.082
1789912722.225421,-44.434,-35.156,-20.508,-58.105
1789912722.229285,-64.941,-42.480,-25.879,-60.059
1789912722.233148,-77.148,-47.363,-30.273,-57.129
1789912722.237012,-69.336,-46.387,-25.391,-55.176
1789912722.240875,-77.148,-41.016,-20.508,-63.477
1789912722.244739,-76.172,-41.016,-18.555,-56.152
1789912722.248602,-65.430,-45.898,-18.555,-52.246
1789912722.252466,-62.988,-41.504,-15.137,-55.176
1789912722.256329,-67.383,-37.109,-14.160,-55.664
1789912722.260193,-74.219,-35.156,-21.973,-57.129
1789912722.264056,-58.105,-26.855,-18.066,-47.852
1789912722.268311,-30.273,-15.625,-12.207,-30.762
1789912722.272175,-34.180,-23.926,-6.348,-54.688
1789912722.276038,-62.500,-33.203,-5.859,-60.547
1789912722.279902,-53.223,-22.949,-11.230,-43.457
1789912722.283766,-28.809,-23.926,-3.418,-41.504
1789912722.287630,-33.691,-19.043,0.488,-30.273
1789912722.291493,-40.527,-6.836,-3.418,-38.086
1789912722.295357,-18.066,-7.812,2.930,-20.508
1789912722.299221,-5.859,-2.441,9.766,5.371
1789912722.303085,-24.414,9.766,19.531,12.207
1789912722.306948,-38.086,7.812,13.672,2.441
1789912722.310812,-41.992,10.742,1.953,-13.184
1789912722.315313,-57.617,-2.441,5.371,-35.645
1789912722.319177,-54.199,-3.418,10.742,-31.250
1789912722.323041,-55.664,4.883,3.906,-27.344
1789912722.326905,-51.758,-3.906,-6.348,-44.434
1789912722.330769,-33.203,-4.883,-0.488,-34.668
1789912722.334633,-47.852,9.766,10.254,-26.855
1789912722.338497,-68.848,2.441,8.789,-40.527
1789912722.342361,-77.637,-13.672,9.277,-44.434
1789912722.346226,-67.383,3.906,1.465,-62.012
1789912722.350090,-67.383,19.531,-8.789,-59.570
1789912722.353954,-78.125,22.461,-6.836,-58.594
1789912722.357818,-109.375,17.090,-8.301,-77.637
1789912722.362280,-125.977,20.996,-11.230,-66.406
1789912722.366145,-100.098,16.113,-20.996,-60.059
1789912722.370009,-117.188,15.625,-24.902,-85.449
1789912722.373873,-137.207,32.227,-21.973,-99.121
1789912722.377738,-131.348,34.668,-29.297,-77.148
1789912722.381603,-115.723,38.574,-25.391,-64.941
1789912722.385467,-114.746,49.316,-13.672,-65.430
1789912722.389331,-135.742,40.039,-21.973,-66.406
1789912722.393196,-124.023,30.762,-39.551,-58.105
1789912722.397060,-101.074,37.598,-49.805,-56.152
1789912722.400925,-85.449,35.156,-56.152,-25.391
1789912722.404789,-76.172,30.273,-60.547,-6.348
1789912722.409207,-77.148,33.203,-56.641,-26.855
1789912722.413072,-52.734,41.504,-49.316,0.488
1789912722.416937,-15.625,34.180,-72.266,31.738
1789912722.420801,-4.883,10.742,-93.262,30.762
1789912722.424666,-3.418,8.301,-92.285,35.156
1789912722.428531,21.484,17.090,-78.125,63.965
1789912722.432396,36.133,8.301,-73.242,74.707
1789912722.436261,54.199,8.789,-82.031,87.891
1789912722.440125,46.387,4.395,-73.730,87.891
1789912722.443990,41.504,-8.789,-79.102,94.238
1789912722.447855,68.359,-0.977,-84.473,117.188
1789912722.451720,81.055,-0.977,-75.195,119.629
1789912722.456101,68.359,-20.020,-81.055,117.188
1789912722.459966,49.805,-25.391,-83.496,105.957
1789912722.463831,65.918,-22.461,-78.125,109.863
1789912722.467696,77.637,-18.555,-69.336,121.094
1789912722.471561,75.684,-7.812,-64.941,97.656
1789912722.475426,63.477,-21.484,-79.590,82.031
1789912722.479291,46.387,-33.691,-89.844,87.402
1789912722.483157,55.176,-28.320,-88.379,82.520
1789912722.487022,50.781,-35.156,-85.938,75.684
1789912722.490887,50.781,-32.227,-79.590,75.195
1789912722.494752,40.527,-26.855,-81.543,62.012
1789912722.498617,27.344,-38.086,-92.773,58.594
1789912722.502958,34.668,-40.527,-91.797,66.895
1789912722.506824,23.926,-33.691,-83.496,67.871
1789912722.510689,16.113,-35.645,-79.590,46.387
1789912722.514554,23.438,-34.668,-82.031,32.227
1789912722.518420,17.090,-38.086,-85.449,45.410
1789912722.522285,29.785,-38.574,-90.820,44.922
1789912722.526150,23.926,-24.414,-89.355,33.203
1789912722.530016,27.832,-20.020,-81.543,50.293
1789912722.533881,39.551,-35.645,-74.219,59.570
1789912722.537746,5.859,-32.715,-76.172,46.387
1789912722.541612,-2.441,-31.250,-81.543,35.645
1789912722.545477,17.578,-35.645,-80.566,28.809
1789912722.549806,11.719,-31.250,-77.148,36.133
1789912722.553671,-7.812,-40.527,-77.148,36.133
1789912722.557537,-8.301,-40.527,-85.938,32.227
1789912722.561403,8.301,-35.156,-87.402,15.625
1789912722.565268,15.137,-41.016,-81.055,10.254
1789912722.569134,-3.418,-44.922,-75.684,23.926
1789912722.572999,4.395,-47.363,-84.961,18.555
1789912722.576865,11.230,-45.898,-88.867,6.348
1789912722.580731,-7.812,-40.527,-82.031,-3.906
1789912722.584596,-6.836,-40.039,-79.590,0.488
1789912722.588462,-14.160,-52.734,-79.590,-8.301
1789912722.592328,-17.090,-52.734,-82.031,-13.672
1789912722.596591,-6.836,-46.387,-78.125,7.324
1789912722.600457,-7.812,-32.715,-64.453,17.090
1789912722.604323,-2.930,-28.809,-65.430,-6.836
1789912722.608189,-1.465,-42.969,-72.266,-16.602
1789912722.612055,-16.113,-41.992,-67.871,-6.348
1789912722.615921,-21.973,-40.039,-74.707,-7.812
1789912722.619786,-16.113,-42.969,-80.078,-8.301
1789912722.623652,-30.273,-50.293,-76.660,-23.926
1789912722.627518,-34.180,-53.223,-75.195,-24.414
1789912722.631384,-23.926,-52.734,-77.148,-18.066
1789912722.635250,-25.879,-57.617,-83.008,-24.414
1789912722.639116,-20.508,-55.664,-83.008,-30.273
1789912722.643348,-33.691,-45.410,-72.754,-25.391
1789912722.647213,-31.250,-45.898,-61.523,-11.719
1789912722.651080,-16.113,-47.852,-62.012,-19.531
1789912722.654946,-45.898,-51.758,-67.871,-48.340
1789912722.658812,-51.270,-43.945,-70.312,-47.852
1789912722.662678,-51.270,-49.805,-72.754,-32.715
1789912722.666544,-59.570,-58.105,-68.848,-34.180
1789912722.670410,-38.086,-51.758,-61.523,-41.504
1789912722.674276,-38.574,-45.410,-60.547,-24.414
1789912722.678142,-44.922,-38.086,-55.664,-20.996
1789912722.682008,-35.156,-39.062,-52.246,-44.434
1789912722.685874,-41.504,-41.992,-52.734,-40.527
1789912722.690350,-40.039,-45.410,-55.664,-27.832
1789912722.694216,-29.785,-52.734,-58.105,-23.926
1789912722.698083,-21.973,-50.781,-55.664,-20.996
1789912722.701949,-29.785,-46.387,-54.688,-7.812
1789912722.705816,-33.691,-47.363,-56.152,-2.441
1789912722.709682,-28.809,-44.922,-55.176,-15.137
1789912722.713548,-42.480,-36.133,-44.434,-16.602
1789912722.717415,-54.688,-51.758,-33.203,-15.625
1789912722.721281,-52.734,-57.617,-32.715,-13.672
1789912722.725147,-54.199,-44.922,-37.109,-2.441
1789912722.729014,-60.059,-42.480,-33.691,0.000
1789912722.732880,-52.246,-38.086,-28.320,0.977
1789912722.737601,-43.945,-34.180,-24.902,-13.672
1789912722.741467,-58.594,-35.156,-39.062,-29.785
1789912722.745334,-64.941,-36.621,-43.457,-33.203
1789912722.749201,-46.387,-35.156,-36.133,-30.762
1789912722.753068,-40.039,-33.691,-41.016,-21.973
1789912722.756935,-53.711,-35.156,-35.156,-4.395
1789912722.760802,-59.082,-38.574,-28.809,-9.277
1789912722.764669,-66.895,-39.551,-28.809,-15.137
1789912722.768536,-71.777,-43.457,-32.715,-7.812
1789912722.772402,-73.730,-45.898,-38.574,-12.695
1789912722.776269,-71.777,-42.969,-40.527,-44.434
1789912722.780136,-69.336,-43.457,-38.574,-56.152
1789912722.784521,-75.195,-44.922,-38.086,-41.504
1789912722.788388,-84.473,-42.480,-39.062,-49.316
1789912722.792256,-82.520,-39.062,-38.574,-60.059
1789912722.796123,-87.402,-41.504,-38.086,-46.875
1789912722.799990,-91.309,-46.387,-37.109,-31.738
1789912722.803857,-87.891,-50.781,-36.133,-37.598
1789912722.807724,-101.562,-49.316,-42.969,-45.898
1789912722.811591,-96.191,-44.922,-42.480,-49.316
1789912722.815459,-82.031,-43.945,-41.016,-37.598
1789912722.819326,-84.961,-35.645,-37.598,-15.625
1789912722.823193,-105.957,-38.086,-31.738,-26.367
1789912722.827060,-136.719,-52.246,-33.203,-48.828
1789912722.831417,-148.926,-46.875,-33.203,-51.758
1789912722.835284,-143.555,-44.922,-31.250,-66.406
1789912722.839151,-157.715,-51.758,-23.438,-101.074
1789912722.843019,-196.777,-49.316,-16.113,-122.559
1789912722.846886,-204.590,-44.434,-17.578,-130.371
1789912722.850754,-217.773,-50.293,-17.090,-142.578
1789912722.854621,-241.699,-52.734,-15.137,-145.508
1789912722.858489,-244.141,-48.340,-11.230,-157.715
1789912722.862356,-234.863,-47.363,-2.441,-166.016
1789912722.866223,-227.051,-42.969,4.883,-137.207
1789912722.870091,-212.402,-44.434,4.395,-138.184
1789912722.873958,-221.680,-47.852,5.859,-144.531
1789912722.878273,-256.836,-41.504,10.254,-141.113
1789912722.882141,-229.980,-37.109,13.184,-126.953
1789912722.886008,-190.918,-33.691,17.090,-110.840
1789912722.889876,-192.383,-29.785,21.484,-113.770
1789912722.893744,-192.383,-30.762,24.414,-107.422
1789912722.897611,-172.852,-32.715,27.832,-88.379
1789912722.901479,-157.227,-31.738,21.973,-67.383
1789912722.905347,-149.902,-29.297,23.926,-51.270
1789912722.909214,-138.184,-28.320,20.996,-62.012
1789912722.913082,-118.164,-29.785,7.324,-75.684
1789912722.916950,-117.188,-30.762,6.348,-76.172
1789912722.920817,-130.859,-32.715,6.836,-72.266
1789912722.925093,-113.281,-28.320,4.395,-55.664
1789912722.928961,-97.168,-24.902,4.395,-51.758
1789912722.932829,-87.891,-28.320,6.836,-53.223
1789912722.936697,-83.496,-26.855,5.371,-33.691
1789912722.940565,-93.750,-23.438,0.000,-12.207
1789912722.944432,-88.379,-26.367,2.441,-12.695
1789912722.948300,-64.941,-21.973,0.488,-5.859
1789912722.952168,-45.898,-21.484,-2.930,7.812
1789912722.956036,-29.785,-23.926,-1.465,9.277
1789912722.959904,-41.992,-17.090,-3.906,7.324
1789912722.963772,-46.875,-20.020,-8.301,-1.465
1789912722.967640,-31.250,-26.367,-8.789,3.906
1789912722.971879,-53.711,-33.203,-12.695,12.695
1789912722.975747,-47.852,-35.156,-18.555,-1.465
1789912722.979615,-12.207,-28.809,-15.137,5.859
1789912722.983483,-17.578,-31.738,-13.672,25.879
1789912722.987351,-13.672,-27.832,-18.066,32.715
1789912722.991219,-17.090,-28.809,-16.113,13.184
1789912722.995087,-20.996,-35.645,-19.531,28.809
1789912722.998955,-17.578,-28.320,-26.367,53.223
1789912723.002823,-6.836,-25.391,-25.391,36.133
1789912723.006691,-10.254,-35.156,-25.391,37.109
1789912723.010560,-11.230,-33.691,-24.902,40.527
1789912723.014428,1.953,-21.973,-22.949,40.039
1789912723.018637,-1.953,-22.949,-21.973,40.039
1789912723.022506,0.977,-27.832,-19.043,39.551
1789912723.026374,2.441,-22.949,-19.043,44.434
1789912723.030242,6.836,-15.625,-23.926,48.340
1789912723.034110,24.902,-14.648,-18.555,43.457
1789912723.037979,21.484,-15.625,-17.578,46.387
1789912723.041847,-15.137,-22.461,-21.484,48.340
1789912723.045715,-18.066,-26.855,-20.020,49.316
1789912723.049583,1.465,-24.414,-21.484,50.293
1789912723.053452,8.789,-24.414,-20.508,49.316
1789912723.057320,5.859,-25.391,-24.902,52.246
1789912723.061188,0.488,-33.203,-31.738,34.180
1789912723.065629,7.812,-39.062,-32.227,33.691
1789912723.069497,11.719,-36.621,-32.227,42.480
1789912723.073366,-9.766,-32.715,-27.832,16.113
1789912723.077234,-17.578,-29.785,-27.832,12.207
1789912723.081103,-10.742,-28.320,-28.809,31.738
1789912723.084971,-3.418,-25.879,-29.785,24.902
1789912723.088840,-20.996,-25.391,-28.809,10.254
1789912723.092709,-37.598,-25.391,-24.414,11.719
1789912723.096577,-22.461,-24.902,-24.414,30.273
1789912723.100446,-13.184,-28.809,-28.809,32.227
1789912723.104314,-20.020,-31.738,-25.391,22.461
1789912723.108183,-31.250,-32.715,-18.066,19.043
1789912723.112579,-37.598,-36.133,-24.414,-1.953
1789912723.116448,-39.062,-36.621,-29.785,4.395
1789912723.120317,-41.504,-34.180,-28.809,11.230
1789912723.124186,-55.176,-36.621,-30.273,0.977
1789912723.128055,-56.641,-37.598,-27.344,9.277
1789912723.131924,-46.875,-30.762,-25.879,5.859
1789912723.135792,-41.016,-32.227,-24.902,-6.836
1789912723.139661,-40.039,-33.203,-22.461,0.000
1789912723.143530,-61.523,-32.715,-19.043,5.859
1789912723.147399,-75.195,-35.645,-24.902,7.324
1789912723.151268,-73.242,-40.527,-27.832,4.883
1789912723.155137,-61.523,-35.645,-19.043,-7.324
1789912723.159502,-62.988,-32.227,-20.020,-18.555
1789912723.163371,-69.824,-34.180,-33.691,-17.578
1789912723.167240,-69.824,-33.203,-32.715,1.465
1789912723.171109,-75.684,-34.668,-22.461,3.418
1789912723.174978,-56.152,-34.668,-26.855,-17.578
1789912723.178847,-57.129,-38.574,-28.809,-12.695
1789912723.182716,-66.406,-39.551,-29.297,-13.184
1789912723.186585,-52.246,-37.109,-30.762,-19.043
1789912723.190454,-66.406,-38.086,-26.367,-10.742
1789912723.194323,-67.871,-33.203,-23.926,-8.789
1789912723.198192,-51.758,-31.250,-25.879,-24.414
1789912723.202061,-46.875,-30.762,-25.879,-13.184
1789912723.206394,-44.434,-29.785,-28.809,-0.488
1789912723.210263,-51.270,-32.715,-26.855,-9.277
1789912723.214132,-41.016,-32.227,-23.438,-9.766
1789912723.218002,-43.457,-30.762,-22.461,-2.930
1789912723.221871,-69.336,-25.879,-20.020,-8.301
1789912723.225740,-70.801,-25.879,-20.508,-9.277
1789912723.229610,-62.500,-25.391,-17.578,-11.719
1789912723.233479,-53.711,-26.367,-12.207,-7.812
1789912723.237348,-37.598,-20.996,-18.066,0.000
1789912723.241218,-39.062,-18.555,-18.555,-5.371
1789912723.245087,-44.922,-20.020,-16.602,-7.812
1789912723.248956,-58.105,-23.926,-11.230,-9.766
