timestamp,TP9,AF7,AF8,TP10
1789992905.231230,0.000,0.000,-0.488,0.000
1789992905.235090,0.000,0.000,-0.488,0.000
1789992905.238949,-0.488,-0.977,1.465,-1.465
1789992905.242809,1.465,0.977,-6.836,2.930
1789992905.246669,-3.418,-5.371,25.879,-15.625
1789992905.250528,-5.371,-16.602,8.789,-33.691
1789992905.254388,35.645,-12.207,-39.551,-18.555
1789992905.258247,33.203,-8.301,-21.484,-25.879
1789992905.262107,-14.160,-12.695,-23.438,-30.273
1789992905.265966,-15.137,-18.555,-26.367,-24.414
1789992905.269826,10.742,-20.508,-25.879,-19.531
1789992905.273685,22.949,-16.602,-26.367,-21.484
1789992905.276651,-20.508,-22.949,-25.391,-38.574
1789992905.280436,-38.086,-26.855,-26.855,-43.457
1789992905.284221,-7.324,-26.855,-24.902,-34.668
1789992905.288006,2.930,-26.367,-21.973,-24.414
1789992905.291791,-15.137,-28.320,-21.484,-24.902
1789992905.295576,-35.156,-32.227,-19.043,-32.227
1789992905.299361,-17.090,-24.902,-15.137,-17.578
1789992905.303146,27.344,-17.090,-10.254,-6.836
1789992905.306931,17.578,-18.066,-10.254,-20.508
1789992905.310716,-22.949,-21.973,-17.090,-23.926
1789992905.314501,-22.949,-20.996,-15.137,-18.555
1789992905.318286,10.742,-21.484,-14.648,-20.020
1789992905.319597,15.625,-20.508,-17.578,-23.926
1789992905.323279,-23.926,-23.438,-21.484,-42.480
1789992905.326962,-25.391,-27.344,-27.832,-41.504
1789992905.330643,3.906,-25.879,-23.926,-21.484
1789992905.334325,15.137,-25.879,-33.203,-30.273
1789992905.338007,-13.184,-26.367,-39.062,-47.363
1789992905.341689,-28.320,-27.832,-29.297,-51.270
1789992905.345371,-6.348,-27.344,-25.391,-42.969
1789992905.349053,22.461,-30.273,-30.762,-25.391
1789992905.352735,6.836,-29.785,-31.250,-15.137
1789992905.356417,-26.367,-21.484,-22.949,-26.855
1789992905.360099,-14.160,-20.508,-19.043,-37.109
1789992905.359906,20.996,-21.973,-21.484,-32.715
1789992905.363480,13.672,-24.902,-23.438,-24.902
1789992905.367055,-19.043,-27.344,-20.508,-20.020
1789992905.370629,-20.020,-24.902,-15.625,-15.137
1789992905.374203,11.230,-22.949,-18.066,-14.648
1789992905.377778,13.184,-29.785,-21.973,-27.344
1789992905.381352,-31.250,-31.250,-22.461,-37.109
1789992905.384926,-41.992,-29.785,-20.508,-29.297
1789992905.388501,-13.184,-31.738,-16.113,-30.273
1789992905.392075,6.348,-30.273,-22.461,-33.691
1789992905.395649,-17.578,-27.832,-22.949,-32.715
1789992905.399224,-38.086,-30.273,-20.996,-45.410
1789992905.400365,-18.066,-31.250,-20.508,-40.527
1789992905.403889,13.672,-23.926,-15.625,-36.133
1789992905.407413,5.859,-22.461,-15.137,-41.992
1789992905.410936,-30.762,-23.926,-21.484,-29.785
1789992905.414460,-28.809,-28.320,-20.508,-21.973
1789992905.417983,10.742,-28.809,-13.184,-20.508
1789992905.421507,9.277,-18.555,-14.648,-39.551
1789992905.425031,-30.273,-18.555,-17.578,-56.641
1789992905.428554,-29.785,-18.066,-16.602,-56.641
1789992905.432078,10.254,-19.531,-20.508,-41.504
1789992905.435602,27.344,-24.902,-24.414,-43.945
1789992905.439125,-12.695,-27.344,-27.344,-67.871
1789992905.440242,-29.297,-24.414,-26.367,-58.105
1789992905.443726,-0.488,-21.484,-24.902,-39.551
1789992905.447209,19.531,-18.555,-28.809,-28.320
1789992905.450693,-3.418,-16.113,-29.297,-29.297
1789992905.454176,-27.344,-21.973,-33.691,-52.246
1789992905.457660,-20.996,-23.438,-33.691,-47.852
1789992905.461143,8.789,-21.484,-26.855,-18.555
1789992905.464627,-2.441,-23.438,-32.715,-26.855
1789992905.468111,-35.645,-22.949,-36.133,-56.152
1789992905.471594,-25.391,-20.996,-22.461,-50.293
1789992905.475078,11.719,-20.996,-17.090,-31.250
1789992905.478561,9.766,-23.438,-13.672,-26.367
1789992905.481973,-35.645,-24.414,-17.578,-40.039
1789992905.485456,-38.086,-27.344,-19.531,-30.273
1789992905.488938,1.465,-24.902,-12.207,-13.672
1789992905.492421,20.020,-15.137,-11.230,-18.555
1789992905.495903,-14.648,-17.578,-13.184,-27.344
1789992905.499386,-28.320,-26.367,-18.555,-32.227
1789992905.502868,12.207,-26.855,-16.113,-18.066
1789992905.506351,38.086,-26.855,-12.695,-9.277
1789992905.509833,-5.371,-30.273,-20.020,-28.809
1789992905.513316,-40.527,-26.367,-25.879,-33.691
1789992905.516798,-14.160,-21.973,-19.043,-23.926
1789992905.520281,23.926,-19.043,-14.160,-23.926
1789992905.523597,10.254,-24.414,-23.926,-26.367
1789992905.527078,-30.273,-26.855,-23.926,-26.855
1789992905.530558,-37.109,-27.344,-19.531,-33.203
1789992905.534039,-7.812,-36.133,-29.297,-38.574
1789992905.537519,5.371,-42.480,-34.180,-34.668
1789992905.541000,-34.668,-40.039,-34.668,-41.992
1789992905.544481,-53.223,-35.645,-27.832,-50.293
1789992905.547961,-9.766,-34.668,-14.160,-25.391
1789992905.551442,7.324,-38.086,-20.996,-1.465
1789992905.554922,-36.133,-39.551,-34.180,-21.484
1789992905.558403,-62.500,-37.109,-31.250,-41.016
1789992905.561883,-43.945,-37.109,-29.785,-45.410
1789992905.565149,-9.277,-37.598,-28.809,-17.578
1789992905.568628,-23.926,-33.203,-28.320,-24.902
1789992905.572106,-57.129,-26.855,-29.785,-62.500
1789992905.575584,-43.945,-27.832,-28.320,-67.383
1789992905.579063,-2.930,-30.273,-24.414,-52.246
1789992905.582541,-7.324,-27.832,-30.273,-52.734
1789992905.586019,-47.852,-25.391,-34.180,-60.547
1789992905.589498,-44.922,-26.367,-29.297,-45.898
1789992905.592976,-13.184,-28.809,-24.902,-39.062
1789992905.596454,0.977,-31.250,-29.785,-33.691
1789992905.599932,-32.227,-31.250,-30.762,-41.016
1789992905.603411,-66.895,-27.832,-26.367,-47.852
1789992905.608482,-28.809,-23.438,-26.367,-33.203
1789992905.611975,3.906,-21.973,-23.438,-16.113
1789992905.615468,-26.855,-24.414,-20.020,-24.414
1789992905.618961,-41.992,-23.438,-21.484,-37.109
1789992905.622454,-20.508,-16.602,-19.043,-25.879
1789992905.625947,3.906,-15.137,-17.578,-20.020
1789992905.629440,-8.301,-17.578,-20.996,-26.367
1789992905.632933,-47.363,-20.996,-21.973,-38.574
1789992905.636426,-41.992,-28.320,-23.926,-38.574
1789992905.639920,-3.418,-23.926,-23.438,-28.320
1789992905.643413,-8.789,-20.020,-24.414,-31.250
1789992905.646906,-36.133,-23.926,-27.832,-41.016
1789992905.651549,-54.199,-30.273,-28.809,-50.293
1789992905.655051,-40.527,-32.715,-25.879,-45.410
1789992905.658554,-5.859,-27.832,-20.508,-37.109
1789992905.662057,-38.574,-29.785,-28.809,-49.805
1789992905.665559,-68.359,-28.320,-38.574,-61.035
1789992905.669062,-42.480,-20.508,-27.344,-41.992
1789992905.672565,6.836,-18.066,-15.137,-26.855
1789992905.676067,-14.160,-23.438,-20.996,-32.715
1789992905.679570,-50.293,-23.926,-28.320,-35.645
1789992905.683073,-20.508,-25.391,-23.438,-21.484
1789992905.686575,-11.230,-31.738,-15.137,-19.531
1789992905.690078,-42.480,-33.203,-14.160,-47.852
1789992905.696086,-66.406,-39.062,-16.602,-57.617
1789992905.699608,-61.523,-42.969,-8.789,-37.109
1789992905.703129,-35.645,-45.898,-2.441,-27.832
1789992905.706651,-37.598,-50.293,-5.859,-26.367
1789992905.710173,-62.988,-55.176,-6.348,-28.320
1789992905.713694,-51.758,-53.711,-7.812,-33.691
1789992905.717216,-24.414,-45.898,-11.719,-21.484
1789992905.720737,-14.160,-44.922,-5.371,-14.648
1789992905.724259,-42.969,-42.969,0.000,-15.625
1789992905.727781,-57.129,-42.969,-7.324,-21.973
1789992905.731302,-28.320,-39.551,-4.883,-6.836
1789992905.734824,2.930,-39.062,-6.348,-5.859
1789992905.740519,-7.324,-39.551,-10.254,-26.367
1789992905.744056,-43.457,-35.645,-9.766,-27.832
1789992905.747592,-31.738,-29.297,-5.371,-19.043
1789992905.751129,16.113,-21.973,-4.883,-2.930
1789992905.754666,4.395,-23.926,-10.254,-13.184
1789992905.758202,-32.227,-27.344,-12.207,-36.621
1789992905.761739,-29.785,-27.832,-15.625,-40.039
1789992905.765276,-0.488,-27.832,-17.578,-20.996
1789992905.768813,-2.441,-32.227,-23.438,-5.371
1789992905.772349,-34.668,-28.809,-27.344,-16.113
1789992905.775886,-38.086,-24.414,-21.973,-28.809
1789992905.779423,-17.090,-29.785,-18.555,-39.062
1789992905.786048,2.930,-26.367,-16.602,-31.250
1789992905.789605,-21.484,-28.320,-20.020,-30.273
1789992905.793161,-40.039,-31.250,-20.508,-16.113
1789992905.796718,-11.719,-22.461,-10.742,-3.906
1789992905.800275,19.043,-16.602,-5.371,-6.348
1789992905.803831,-6.836,-20.508,-13.672,-11.719
1789992905.807388,-48.340,-27.344,-22.949,-23.438
1789992905.810944,-35.645,-28.809,-20.020,-12.207
1789992905.814501,2.441,-28.320,-14.648,-12.207
1789992905.818057,-2.441,-30.762,-17.578,-6.348
1789992905.821614,-29.785,-32.227,-16.602,-11.719
1789992905.825170,-41.992,-28.809,-13.672,-23.926
1789992905.831231,-20.020,-23.438,-10.254,-9.766
1789992905.834802,0.000,-25.391,-8.789,-6.348
1789992905.838373,-34.180,-26.367,-12.207,-34.180
1789992905.841945,-48.828,-23.926,-15.137,-39.551
1789992905.845516,-24.902,-26.855,-15.625,-23.926
1789992905.849088,-4.395,-22.949,-19.043,-27.344
1789992905.852659,-24.902,-16.602,-19.531,-38.086
1789992905.856231,-46.387,-20.996,-18.555,-41.016
1789992905.859802,-23.438,-20.508,-12.695,-31.738
1789992905.863374,11.230,-12.207,-4.883,-13.672
1789992905.866945,-10.254,-16.113,-6.348,-21.973
1789992905.870516,-41.016,-21.484,-4.883,-0.977
1789992905.876018,-21.973,-16.602,-4.883,8.789
1789992905.879600,3.906,-11.230,-9.277,-34.180
1789992905.883182,-9.277,-16.602,-15.625,-53.223
1789992905.886764,-49.316,-21.484,-18.555,-66.895
1789992905.890347,-56.641,-21.973,-20.996,-61.035
1789992905.893929,-33.203,-27.344,-21.973,-41.016
1789992905.897511,-21.973,-23.926,-18.555,-35.645
1789992905.901093,-37.109,-19.043,-17.090,-30.762
1789992905.904675,-51.270,-15.137,-11.230,-21.973
1789992905.908257,-25.391,-12.207,-14.648,-20.020
1789992905.911839,-2.441,-16.113,-19.043,-17.090
1789992905.915421,-23.438,-13.672,-11.719,-29.297
1789992905.921929,-48.828,-11.719,-10.254,-39.062
1789992905.925526,-32.715,-16.602,-16.113,-21.973
1789992905.929124,4.395,-20.020,-17.578,-11.719
1789992905.932721,-8.301,-16.602,-15.625,-26.855
1789992905.936319,-40.039,-13.184,-18.555,-29.785
1789992905.939916,-34.668,-14.648,-19.531,-23.926
1789992905.943513,-9.766,-15.137,-16.602,-22.949
1789992905.947111,-8.301,-12.695,-12.207,-23.438
1789992905.950708,-44.434,-20.020,-13.672,-40.039
1789992905.954306,-57.617,-26.367,-20.020,-47.363
1789992905.957903,-20.020,-20.020,-17.090,-28.809
1789992905.961500,4.395,-19.531,-12.207,-20.996
1789992905.967431,-25.879,-23.438,-14.160,-27.344
1789992905.971040,-45.898,-24.902,-16.602,-36.133
1789992905.974649,-27.344,-26.855,-17.578,-31.738
1789992905.978258,-0.977,-20.508,-9.277,-13.672
1789992905.981866,-18.066,-18.066,-13.672,-29.297
1789992905.985475,-55.664,-28.320,-27.344,-49.805
1789992905.989084,-44.922,-22.949,-24.902,-37.109
1789992905.992693,9.277,-13.184,-18.066,-24.902
1789992905.996302,3.418,-11.230,-15.137,-25.879
1789992905.999911,-45.898,-11.719,-15.625,-38.574
1789992906.003520,-43.457,-15.137,-20.020,-41.992
1789992906.007128,-9.277,-14.160,-19.531,-26.855
1789992906.013073,-3.906,-17.090,-19.043,-30.762
1789992906.016693,-43.945,-24.902,-18.555,-42.480
1789992906.020313,-62.012,-30.273,-27.344,-48.828
1789992906.023932,-31.250,-30.273,-25.391,-28.320
1789992906.027552,-2.441,-29.785,-17.578,-14.648
1789992906.031171,-29.785,-25.879,-19.043,-36.621
1789992906.034791,-50.781,-27.832,-20.508,-46.387
1789992906.038411,-38.086,-30.273,-26.367,-42.969
1789992906.042030,-7.812,-31.738,-28.809,-34.668
1789992906.045650,-18.555,-31.738,-27.832,-47.363
1789992906.049270,-56.152,-28.320,-22.949,-59.570
1789992906.052889,-52.246,-27.344,-18.066,-47.852
1789992906.058711,-19.531,-25.391,-12.695,-29.297
1789992906.062340,-17.578,-27.832,-11.230,-29.297
1789992906.065969,-46.875,-22.949,-12.695,-41.016
1789992906.069599,-49.805,-21.484,-11.719,-34.668
1789992906.073228,-26.855,-25.391,-17.090,-24.902
1789992906.076857,-11.719,-27.344,-20.020,-24.902
1789992906.080487,-39.062,-26.367,-19.043,-24.902
1789992906.084116,-56.641,-21.973,-22.461,-38.574
1789992906.087745,-32.227,-25.879,-25.879,-44.434
1789992906.091375,-5.859,-33.691,-27.832,-39.551
1789992906.095004,-33.691,-37.109,-30.762,-55.664
1789992906.098633,-57.617,-32.715,-29.785,-53.223
1789992906.104292,-38.574,-25.879,-24.902,-40.039
1789992906.107930,-4.883,-27.344,-20.020,-28.809
1789992906.111567,-16.113,-27.344,-18.555,-28.809
1789992906.115205,-58.594,-32.715,-22.461,-47.852
1789992906.118843,-50.781,-35.156,-17.578,-39.551
1789992906.122481,-6.348,-30.762,-10.742,-22.461
1789992906.126118,-7.324,-33.691,-14.648,-30.762
1789992906.129756,-51.270,-37.109,-18.066,-58.105
1789992906.133394,-59.570,-40.039,-19.531,-63.965
1789992906.137032,-28.320,-41.016,-21.484,-44.922
1789992906.140670,-13.184,-37.109,-20.996,-36.621
1789992906.144307,-35.645,-34.668,-16.113,-49.316
1789992906.151365,-49.316,-32.715,-13.184,-36.133
1789992906.155016,-33.691,-28.320,-15.137,-21.973
1789992906.158668,-0.488,-25.879,-12.207,-36.621
1789992906.162319,-23.438,-29.785,-9.277,-39.551
1789992906.165970,-57.129,-29.297,-11.230,-39.551
1789992906.169621,-32.715,-22.949,-13.184,-44.922
1789992906.173273,0.488,-20.508,-11.230,-36.621
1789992906.176924,-21.973,-24.902,-17.090,-46.875
1789992906.180576,-56.152,-25.879,-19.531,-59.082
1789992906.184227,-49.805,-19.043,-14.648,-37.598
1789992906.187878,-21.484,-20.508,-14.648,-33.203
1789992906.191530,-13.184,-28.809,-19.043,-46.387
1789992906.198118,-48.828,-34.180,-24.902,-58.105
1789992906.201781,-59.570,-31.250,-24.414,-50.781
1789992906.205443,-22.949,-22.949,-20.508,-38.574
1789992906.209106,-2.930,-19.043,-18.066,-41.504
1789992906.212768,-36.621,-19.531,-20.020,-47.363
1789992906.216430,-55.664,-23.926,-26.367,-54.688
1789992906.220093,-31.738,-22.949,-27.832,-41.504
1789992906.223755,1.465,-20.996,-19.043,-20.508
1789992906.227418,-13.184,-24.902,-18.066,-24.902
1789992906.231080,-51.270,-25.879,-17.090,-22.461
1789992906.234743,-45.898,-23.438,-8.789,-20.508
1789992906.238405,0.488,-29.297,-10.742,-39.551
1789992906.244758,-7.812,-35.645,-15.137,-39.062
1789992906.248430,-55.664,-32.715,-17.578,-38.086
1789992906.252103,-51.270,-27.344,-11.719,-45.410
1789992906.255775,-20.020,-29.297,-10.742,-33.203
1789992906.259447,-2.441,-31.250,-17.090,-28.809
1789992906.263119,-31.738,-31.738,-8.789,-37.109
1789992906.266792,-37.598,-28.320,-2.930,-34.180
1789992906.270464,-8.789,-21.484,-8.789,-29.297
1789992906.274136,15.137,-17.090,-12.207,-14.648
1789992906.277808,-8.789,-14.648,-15.137,-24.414
1789992906.281480,-41.992,-9.277,-12.695,-50.293
1789992906.285153,-24.902,-3.906,-8.301,-36.621
1789992906.291436,8.789,-7.812,-10.742,-9.277
1789992906.295118,-0.488,-19.043,-15.137,-36.133
1789992906.298799,-41.504,-23.926,-21.484,-55.176
1789992906.302480,-47.363,-21.973,-24.414,-44.922
1789992906.306161,-6.836,-18.066,-23.438,-38.086
1789992906.309843,1.465,-18.555,-20.508,-34.180
1789992906.313524,-33.203,-20.508,-20.020,-28.809
1789992906.317205,-41.016,-20.020,-21.973,-30.273
1789992906.320886,-8.301,-21.973,-19.043,-41.992
1789992906.324568,6.836,-26.367,-23.926,-46.875
1789992906.328249,-34.668,-27.832,-26.855,-48.828
1789992906.331930,-62.012,-29.785,-24.414,-35.156
1789992906.338018,-38.086,-27.344,-19.531,-28.320
1789992906.341708,-4.395,-22.461,-19.043,-29.297
1789992906.345397,-20.996,-30.762,-26.855,-34.180
1789992906.349087,-54.199,-31.250,-25.879,-38.574
1789992906.352776,-36.133,-27.832,-17.578,-22.461
1789992906.356465,2.441,-29.785,-15.137,-14.648
1789992906.360154,-11.719,-31.250,-14.648,-35.156
1789992906.363844,-41.504,-33.203,-14.648,-50.781
1789992906.367533,-39.062,-25.391,-11.719,-40.039
1789992906.371222,-13.672,-23.926,-6.836,-32.715
1789992906.374912,-4.883,-29.297,-10.254,-31.738
1789992906.378601,-45.410,-33.691,-20.020,-49.316
1789992906.384443,0.000,-31.738,-23.438,-64.941
1789992906.388139,0.000,-26.367,-23.926,-44.434
1789992906.391835,0.000,-28.320,-27.832,-33.691
1789992906.395531,0.000,-28.320,-26.855,-43.457
1789992906.399228,0.000,-21.973,-23.926,-47.852
1789992906.402924,0.000,-23.438,-25.391,-43.945
1789992906.406620,0.000,-23.438,-23.926,-44.922
1789992906.410316,0.000,-26.855,-21.973,-44.434
1789992906.414012,0.000,-31.250,-20.996,-50.781
1789992906.417709,0.000,-29.785,-22.461,-46.875
1789992906.421405,0.000,-33.691,-24.414,-38.574
1789992906.425101,0.000,-37.109,-23.438,-46.387
1789992906.430853,-55.176,-36.133,-19.043,-43.457
1789992906.434556,-55.176,-36.621,-20.508,-50.781
1789992906.438258,-20.020,-39.062,-22.461,-40.527
1789992906.441961,-2.441,-39.062,-22.949,-22.949
1789992906.445663,-37.598,-44.434,-29.785,-41.992
1789992906.449366,-61.523,-45.410,-31.250,-47.363
1789992906.453068,-32.227,-41.504,-31.738,-27.832
1789992906.456771,-6.348,-35.156,-33.203,-36.621
1789992906.460474,-31.250,-31.250,-34.180,-58.105
1789992906.464176,-49.805,-32.227,-32.715,-38.086
1789992906.467879,-35.156,-26.367,-27.832,-26.367
1789992906.471581,-4.395,-23.438,-26.367,-26.367
1789992906.477023,-9.766,-20.996,-32.715,-24.902
1789992906.480731,-41.504,-21.484,-39.551,-33.691
1789992906.484438,-31.738,-24.902,-37.598,-40.039
1789992906.488146,7.324,-20.996,-25.879,-39.551
1789992906.491854,6.348,-20.020,-26.855,-34.180
1789992906.495561,-33.203,-27.832,-36.133,-40.039
1789992906.499269,-38.086,-26.855,-36.621,-49.805
1789992906.502977,5.859,-21.973,-31.250,-36.621
1789992906.506685,13.672,-23.926,-29.785,-20.996
1789992906.510392,-36.621,-28.809,-26.855,-36.133
1789992906.514100,-59.082,-32.715,-24.902,-40.039
1789992906.517808,-38.574,-32.227,-29.785,-29.297
1789992906.524251,-10.254,-29.785,-30.273,-24.902
1789992906.527966,-34.668,-28.320,-28.809,-25.879
1789992906.531682,-57.617,-29.297,-21.973,-25.879
1789992906.535397,-38.574,-29.785,-16.602,-19.043
1789992906.539113,-8.789,-26.855,-15.137,-15.137
1789992906.542829,-17.578,-27.344,-15.137,-18.555
1789992906.546544,-56.641,-34.180,-19.043,-32.715
1789992906.550260,-63.477,-35.156,-19.531,-31.250
1789992906.553975,-35.156,-29.785,-23.926,-18.066
1789992906.557691,-28.809,-33.691,-28.809,-25.391
1789992906.561406,-66.406,-30.762,-24.902,-45.898
1789992906.565122,-92.285,-25.391,-26.367,-51.270
1789992906.571268,-62.012,-27.344,-30.762,-39.062
1789992906.574990,-38.574,-24.414,-30.273,-22.461
1789992906.578712,-72.754,-23.438,-31.738,-44.434
1789992906.582435,-84.961,-23.926,-30.762,-69.824
1789992906.586157,-60.059,-25.879,-30.273,-49.805
1789992906.589879,-41.016,-26.855,-32.227,-41.016
1789992906.593602,-73.730,-26.855,-36.621,-62.500
1789992906.597324,-104.980,-28.320,-35.645,-76.660
1789992906.601046,-86.914,-26.855,-35.645,-63.965
1789992906.604769,-51.270,-20.020,-31.250,-43.457
1789992906.608491,-50.293,-13.672,-22.949,-39.062
1789992906.612213,-77.148,-16.113,-26.367,-39.062
1789992906.618251,-70.801,-13.184,-23.926,-44.434
1789992906.621980,-32.715,-12.207,-20.996,-33.691
1789992906.625708,-31.250,-18.066,-23.926,-16.113
1789992906.629437,-70.801,-16.602,-20.508,-19.531
1789992906.633165,-82.031,-16.113,-18.066,-20.996
1789992906.636894,-59.082,-20.996,-18.066,-12.207
1789992906.640623,-34.668,-22.461,-21.973,-14.648
1789992906.644351,-63.477,-21.973,-25.391,-23.926
1789992906.648080,-90.332,-24.414,-27.832,-26.855
1789992906.651808,-63.965,-31.738,-31.250,-29.297
1789992906.655537,-38.574,-34.180,-30.762,-23.926
1789992906.659265,-55.176,-29.297,-30.762,-29.297
1789992906.665092,-81.543,-26.855,-26.367,-33.203
1789992906.668826,-68.848,-28.320,-15.625,-22.949
1789992906.672560,-39.062,-32.227,-19.531,-19.531
1789992906.676294,-43.457,-30.762,-23.438,-34.668
1789992906.680028,-66.406,-27.832,-19.043,-59.082
1789992906.683762,-60.547,-25.391,-18.555,-55.664
1789992906.687496,-35.156,-25.391,-19.043,-39.551
1789992906.691230,-26.855,-31.738,-26.367,-34.180
1789992906.694964,-69.336,-36.621,-29.785,-51.758
1789992906.698698,-78.125,-33.203,-23.438,-57.129
1789992906.702432,-40.039,-29.297,-24.414,-47.363
1789992906.706166,-34.668,-36.621,-27.344,-44.434
1789992906.711934,-75.195,-38.574,-29.785,-59.570
1789992906.715673,-95.215,-35.645,-35.156,-73.242
1789992906.719412,-63.477,-34.180,-30.273,-48.828
1789992906.723151,-29.785,-34.668,-28.320,-32.715
1789992906.726890,-44.922,-34.668,-31.738,-32.227
1789992906.730630,-78.613,-32.715,-26.367,-34.180
1789992906.734369,-75.684,-38.086,-22.949,-31.250
1789992906.738108,-45.898,-35.645,-21.973,-19.531
1789992906.741847,-45.898,-30.273,-20.508,-21.484
1789992906.745586,-82.031,-38.574,-21.484,-40.527
1789992906.749325,-87.891,-40.527,-20.020,-42.480
1789992906.753064,-61.523,-39.062,-15.137,-26.367
1789992906.758722,-39.062,-41.504,-19.043,-29.785
1789992906.762466,-52.734,-36.133,-24.414,-28.320
1789992906.766210,-74.707,-32.715,-20.508,-16.602
1789992906.769954,-39.551,-28.320,-13.184,-17.090
1789992906.773698,-13.184,-27.344,-17.090,-23.438
1789992906.777442,-55.176,-36.133,-25.391,-39.062
1789992906.781185,-76.172,-36.621,-25.879,-38.574
1789992906.784929,-53.711,-31.738,-25.391,-34.180
1789992906.788673,-16.113,-27.344,-19.531,-25.879
1789992906.792417,-23.926,-25.391,-20.996,-26.367
1789992906.796161,-64.453,-22.949,-26.367,-41.016
1789992906.799905,-61.035,-19.043,-25.391,-39.551
1789992906.805259,-24.902,-22.461,-21.973,-38.086
1789992906.809006,-22.461,-20.020,-24.414,-53.223
1789992906.812754,-57.617,-13.184,-27.832,-55.176
1789992906.816502,-71.777,-18.066,-29.785,-50.293
1789992906.820250,-43.945,-20.508,-34.180,-43.457
1789992906.823997,-28.809,-27.344,-38.086,-39.062
1789992906.827745,-62.988,-37.109,-42.480,-49.316
1789992906.831493,-91.797,-34.180,-39.062,-64.941
1789992906.835240,-83.008,-34.180,-38.574,-60.547
1789992906.838988,-35.645,-33.691,-34.180,-31.250
1789992906.842736,-42.969,-35.156,-36.133,-38.086
1789992906.846483,-84.473,-42.969,-40.527,-51.758
1789992906.851685,-71.289,-41.016,-28.809,-44.922
1789992906.855436,-32.715,-39.062,-24.414,-36.621
1789992906.859187,-37.109,-38.086,-21.973,-31.738
1789992906.862938,-66.406,-39.551,-18.066,-30.762
1789992906.866689,-67.383,-44.434,-17.090,-25.391
1789992906.870440,-34.180,-41.016,-20.020,-17.578
1789992906.874191,-25.879,-30.273,-22.949,-20.996
1789992906.877942,-55.664,-25.879,-22.949,-47.852
1789992906.881693,-63.965,-25.879,-19.531,-56.152
1789992906.885444,-31.738,-23.926,-19.043,-47.363
1789992906.889195,-10.254,-22.949,-19.043,-28.320
1789992906.892946,-38.574,-23.926,-25.879,-23.926
1789992906.898987,-68.359,-27.832,-33.203,-43.457
1789992906.902743,-47.363,-26.367,-31.250,-48.828
1789992906.906499,-10.254,-23.926,-33.691,-35.645
1789992906.910255,-30.273,-26.855,-37.598,-43.457
1789992906.914011,-61.523,-29.785,-38.574,-61.035
1789992906.917768,-50.781,-30.762,-34.180,-55.664
1789992906.921524,-11.719,-27.344,-28.320,-36.621
1789992906.925280,-10.742,-26.855,-31.738,-19.043
1789992906.929036,-46.875,-30.762,-34.668,-40.527
1789992906.932792,-54.199,-33.691,-32.715,-48.340
1789992906.936549,-19.043,-33.203,-27.832,-38.574
1789992906.940305,-4.395,-30.273,-27.344,-39.551
1789992906.946072,-36.621,-27.832,-29.785,-35.645
1789992906.949833,-58.105,-24.414,-31.738,-43.457
1789992906.953593,-35.156,-16.113,-28.320,-39.551
1789992906.957354,-2.441,-13.672,-21.973,-21.484
1789992906.961115,-29.785,-20.020,-26.855,-23.926
1789992906.964875,-55.176,-17.578,-26.367,-27.344
1789992906.968636,-42.480,-14.648,-14.160,-29.297
1789992906.972397,-15.625,-17.578,-20.508,-25.879
1789992906.976157,-20.996,-21.484,-33.203,-26.855
1789992906.979918,-53.223,-25.879,-33.203,-40.527
1789992906.983678,-44.434,-25.879,-29.297,-44.434
1789992906.987439,-3.418,-32.715,-30.762,-29.297
1789992906.993091,-14.160,-38.086,-38.574,-21.484
1789992906.996856,-49.805,-35.156,-40.039,-54.688
1789992907.000621,-52.246,-32.715,-35.645,-74.219
1789992907.004385,-27.832,-34.668,-36.621,-55.176
1789992907.008150,-7.812,-36.133,-36.621,-51.758
1789992907.011915,-39.551,-35.156,-39.062,-61.035
1789992907.015679,-58.594,-31.738,-44.434,-69.824
1789992907.019444,-28.809,-22.949,-40.527,-56.641
1789992907.023209,0.488,-25.879,-41.016,-27.832
1789992907.026973,-26.855,-32.715,-46.387,-46.875
1789992907.030738,-61.523,-29.785,-41.504,-64.941
1789992907.034503,-50.781,-31.738,-35.156,-51.758
1789992907.039976,-12.695,-31.738,-28.809,-39.551
1789992907.043745,-21.484,-28.809,-26.367,-35.156
1789992907.047513,-59.570,-29.785,-24.414,-50.781
1789992907.051281,-55.664,-29.297,-18.066,-45.898
1789992907.055049,-15.137,-26.367,-12.695,-23.926
1789992907.058818,0.000,-20.508,-7.812,-14.648
1789992907.062586,-44.922,-22.949,-7.812,-29.297
1789992907.066354,-66.406,-30.273,-12.695,-42.969
1789992907.070122,-35.645,-29.297,-12.207,-24.902
1789992907.073890,-13.184,-26.367,-8.301,-18.555
1789992907.077659,-38.086,-27.344,-14.160,-20.508
1789992907.081427,-62.988,-30.273,-20.508,-22.949
1789992907.086799,-46.875,-35.645,-18.555,-31.250
1789992907.090570,-20.020,-36.621,-18.555,-35.645
1789992907.094342,-36.133,-30.762,-25.391,-45.410
1789992907.098113,-61.523,-28.320,-23.926,-53.223
1789992907.101885,-49.805,-22.949,-18.555,-38.086
1789992907.105656,-12.207,-16.602,-16.113,-22.949
1789992907.109428,0.000,-13.184,-15.137,-29.297
1789992907.113199,-32.715,-17.578,-22.949,-37.598
1789992907.116971,-46.387,-22.461,-25.391,-40.527
1789992907.120742,-8.301,-16.602,-18.066,-29.785
1789992907.124514,12.695,-15.137,-20.508,-31.738
1789992907.128285,-19.531,-16.602,-20.508,-41.992
1789992907.133482,-33.691,-19.043,-14.160,-37.598
1789992907.137256,0.977,-18.066,-13.184,-20.508
1789992907.141030,23.438,-12.207,-10.742,-5.859
1789992907.144804,-18.066,-15.137,-14.160,-28.320
1789992907.148579,-45.898,-20.508,-14.160,-36.621
1789992907.152353,-28.809,-18.555,-11.230,-30.273
1789992907.156127,4.395,-18.066,-15.625,-34.668
1789992907.159902,-9.766,-21.484,-20.020,-28.320
1789992907.163676,-50.293,-20.996,-20.020,-33.203
1789992907.167450,-52.246,-17.578,-22.461,-48.828
1789992907.171225,-24.902,-20.996,-26.367,-45.898
1789992907.174999,-22.461,-24.414,-25.391,-36.133
1789992907.180155,-45.410,-21.484,-26.367,-39.551
1789992907.183932,-49.316,-19.043,-26.855,-40.039
1789992907.187709,-20.508,-20.508,-24.414,-25.391
1789992907.191486,0.000,-24.902,-34.180,-26.855
1789992907.195263,-40.527,-29.785,-41.504,-54.199
1789992907.199040,-65.918,-36.621,-41.504,-58.594
1789992907.202817,-31.250,-38.574,-38.086,-39.551
1789992907.206594,0.488,-36.133,-37.109,-44.922
1789992907.210371,-21.973,-29.785,-36.133,-67.871
1789992907.214148,-41.016,-26.855,-36.133,-67.383
1789992907.217925,-25.391,-25.391,-37.109,-47.852
1789992907.221702,-11.230,-24.414,-34.668,-35.156
1789992907.226772,0.000,-23.926,-35.645,-42.969
1789992907.230551,0.000,-19.531,-32.715,-47.363
1789992907.234330,0.000,-20.020,-27.832,-44.434
1789992907.238110,0.000,-18.066,-26.367,-36.133
1789992907.241889,0.000,-14.648,-28.809,-34.180
1789992907.245669,0.000,-14.648,-34.180,-47.363
1789992907.249448,0.000,-19.043,-37.598,-55.176
1789992907.253227,0.000,-22.461,-37.109,-51.270
1789992907.257007,0.000,-26.367,-34.180,-44.922
1789992907.260787,0.000,-29.785,-35.156,-49.316
1789992907.264566,0.000,-29.297,-34.668,-57.617
1789992907.268345,0.000,-24.414,-31.250,-53.711
1789992907.274088,-16.602,-26.367,-35.645,-41.504
1789992907.277871,-38.574,-29.297,-34.668,-45.898
1789992907.281654,-59.082,-29.785,-33.203,-57.129
1789992907.285437,-54.688,-27.832,-37.598,-56.641
1789992907.289220,-27.832,-25.879,-43.945,-44.434
1789992907.293003,-28.320,-33.691,-49.805,-39.551
1789992907.296786,-58.105,-35.645,-44.434,-44.922
1789992907.300569,-52.246,-31.738,-41.992,-47.363
1789992907.304352,-18.555,-29.297,-41.992,-46.387
1789992907.308136,-8.789,-31.738,-39.062,-47.363
1789992907.311918,-50.781,-28.320,-34.668,-48.340
1789992907.315701,-60.547,-23.438,-33.203,-53.711
1789992907.321247,-20.996,-27.832,-34.180,-51.758
1789992907.325034,-4.395,-29.785,-35.156,-40.039
1789992907.328820,-40.039,-25.391,-35.156,-34.180
1789992907.332606,-59.082,-24.902,-29.785,-43.457
1789992907.336392,-41.016,-32.227,-37.598,-45.410
1789992907.340179,-25.879,-34.668,-41.016,-29.297
1789992907.343965,-39.551,-32.227,-37.109,-36.133
1789992907.347751,-61.523,-34.668,-37.598,-43.945
1789992907.351537,-60.547,-33.691,-38.086,-39.062
1789992907.355324,-29.785,-32.227,-34.668,-25.391
1789992907.359110,-22.949,-30.273,-26.855,-13.184
1789992907.362896,-50.293,-27.832,-25.879,-32.715
1789992907.368307,-51.758,-28.320,-30.273,-46.387
1789992907.372096,-20.508,-31.738,-35.156,-30.273
1789992907.375885,-10.742,-27.832,-33.691,-16.113
1789992907.379674,-52.734,-25.391,-32.715,-32.715
1789992907.383463,-69.336,-26.855,-30.762,-54.199
1789992907.387252,-32.227,-25.879,-26.367,-39.062
1789992907.391042,1.465,-22.949,-24.902,-24.414
1789992907.394831,-17.578,-17.090,-26.855,-35.156
1789992907.398620,-45.410,-19.043,-27.344,-35.156
1789992907.402409,-40.039,-22.461,-23.926,-23.438
1789992907.406198,-7.812,-23.438,-22.949,-14.648
1789992907.409987,-16.602,-26.367,-24.902,-31.250
1789992907.415257,-39.062,-31.250,-23.438,-35.645
1789992907.419049,-21.973,-28.809,-20.508,-25.879
1789992907.422840,-5.371,-20.020,-25.879,-36.133
1789992907.426632,-15.625,-22.949,-33.691,-45.410
1789992907.430424,-47.852,-20.020,-35.156,-59.570
1789992907.434216,-47.852,-12.695,-32.227,-55.176
1789992907.438007,-12.695,-13.672,-29.785,-38.574
1789992907.441799,3.906,-16.602,-27.344,-21.973
1789992907.445591,-16.113,-15.625,-22.949,-5.371
1789992907.449382,-33.203,-9.766,-19.043,-12.207
1789992907.453174,-4.883,-5.371,-20.996,-1.465
1789992907.456966,27.832,-8.789,-27.832,-5.371
1789992907.462114,-6.836,-13.184,-30.762,-42.969
1789992907.465908,-35.645,-13.672,-33.691,-51.758
1789992907.469702,-14.648,-10.742,-32.715,-29.785
1789992907.473496,5.371,-13.184,-33.203,-24.902
1789992907.477290,-2.441,-19.043,-36.133,-34.180
1789992907.481084,-35.156,-18.066,-37.598,-31.738
1789992907.484878,-43.945,-20.996,-37.109,-25.879
1789992907.488672,-2.930,-23.926,-34.180,1.465
1789992907.492466,5.859,-22.949,-37.598,-18.555
1789992907.496260,-32.715,-26.367,-38.574,-45.898
1789992907.500054,-46.875,-34.180,-39.062,-37.598
1789992907.503848,-17.090,-32.715,-36.133,-35.645
1789992907.509002,0.000,-30.273,-34.668,-22.949
1789992907.512798,0.000,-33.691,-37.598,-36.621
1789992907.516595,0.000,-31.250,-31.250,-41.016
1789992907.520391,0.000,-29.785,-22.949,-27.832
1789992907.524187,0.000,-31.738,-20.508,-25.879
1789992907.527983,0.000,-30.762,-21.973,-26.367
1789992907.531780,0.000,-34.180,-25.879,-21.484
1789992907.535576,0.000,-36.133,-26.367,-16.113
1789992907.539372,0.000,-33.203,-26.855,-16.113
1789992907.543169,0.000,-36.133,-30.762,-21.484
1789992907.546965,0.000,-31.738,-28.320,-41.016
1789992907.550761,0.000,-21.973,-22.949,-31.738
1789992907.555675,5.859,-22.461,-21.484,-6.348
1789992907.559474,4.395,-24.902,-25.879,-7.324
1789992907.563272,-23.926,-18.066,-24.902,-19.043
1789992907.567070,-34.180,-13.672,-20.020,-30.762
1789992907.570868,-17.090,-19.043,-19.043,-25.879
1789992907.574666,6.836,-18.066,-15.137,-12.207
1789992907.578464,-31.738,-17.578,-16.602,-22.949
1789992907.582262,-52.246,-17.090,-20.020,-40.039
1789992907.586060,-9.766,-15.625,-19.531,-31.250
1789992907.589858,10.742,-16.113,-20.508,-10.254
1789992907.593656,-4.883,-13.672,-19.043,-17.578
1789992907.597455,-29.297,-9.277,-14.648,-23.438
1789992907.602250,-19.531,-4.395,-7.812,-13.672
1789992907.606050,19.531,-5.371,-6.348,-9.277
1789992907.609850,20.508,-12.207,-14.648,-8.789
1789992907.613649,-14.160,-14.160,-15.625,-26.367
1789992907.617449,-18.066,-11.230,-11.230,-32.715
1789992907.621249,14.648,-10.254,-10.254,-14.160
1789992907.625048,19.531,-15.625,-16.602,-14.648
1789992907.628848,-15.625,-19.043,-14.648,-13.672
1789992907.632648,-33.203,-22.461,-8.301,-16.113
1789992907.636448,-14.648,-26.367,-9.766,-35.156
1789992907.640247,12.695,-27.832,-11.230,-32.715
1789992907.644047,-21.973,-30.273,-14.648,-39.062
1789992907.649555,-43.457,-26.367,-13.184,-43.945
1789992907.653357,-23.926,-20.508,-10.254,-30.273
1789992907.657160,-10.254,-24.414,-12.695,-20.996
1789992907.660962,-25.879,-33.203,-21.484,-21.973
1789992907.664764,-61.523,-35.156,-30.762,-38.574
1789992907.668567,-60.059,-31.250,-28.809,-41.016
1789992907.672369,-18.066,-22.949,-20.020,-28.809
1789992907.676172,-8.789,-20.508,-9.277,-40.039
1789992907.679974,-47.363,-20.996,-3.418,-50.293
1789992907.683776,-53.711,-17.578,0.977,-47.852
1789992907.687579,-24.902,-20.020,-3.418,-41.016
1789992907.691381,-13.184,-22.461,-16.113,-38.574
1789992907.696712,-52.246,-22.461,-23.926,-44.922
1789992907.700517,-80.078,-29.297,-25.879,-53.223
1789992907.704322,-53.711,-25.879,-19.043,-46.387
1789992907.708126,-27.832,-24.902,-19.043,-35.156
1789992907.711931,-51.758,-27.832,-21.973,-47.363
1789992907.715736,-84.961,-24.414,-21.484,-54.688
1789992907.719541,-77.148,-23.926,-23.926,-60.547
1789992907.723345,-45.898,-20.508,-23.926,-59.570
1789992907.727150,-46.387,-17.578,-24.902,-55.664
1789992907.730955,-83.008,-18.066,-21.973,-58.105
1789992907.734760,-82.520,-24.414,-18.066,-58.105
1789992907.738564,-48.340,-29.297,-17.090,-44.434
1789992907.743727,-37.598,-29.297,-17.090,-41.992
1789992907.747534,-82.031,-33.203,-22.949,-54.688
1789992907.751341,-86.914,-33.203,-19.043,-52.246
1789992907.755148,-47.363,-28.809,-13.672,-47.852
1789992907.758955,-29.297,-29.297,-16.113,-25.879
1789992907.762761,-49.316,-25.391,-16.602,-29.297
1789992907.766568,-70.312,-23.438,-19.531,-50.781
1789992907.770375,-48.828,-25.391,-19.043,-45.898
1789992907.774182,-14.648,-26.855,-20.020,-31.250
1789992907.777988,-27.344,-28.320,-20.508,-37.598
1789992907.781795,-63.965,-30.762,-21.484,-53.711
1789992907.785602,-53.711,-31.250,-22.461,-51.758
1789992907.790727,0.000,-28.320,-20.508,-50.293
1789992907.794536,0.000,-29.297,-21.484,-45.410
1789992907.798345,0.000,-34.668,-20.508,-45.410
1789992907.802154,0.000,-38.574,-28.320,-50.293
1789992907.805963,0.000,-37.598,-25.391,-44.434
1789992907.809771,0.000,-33.691,-20.996,-43.945
1789992907.813580,0.000,-34.180,-31.250,-52.734
1789992907.817389,0.000,-28.809,-30.273,-47.852
1789992907.821198,0.000,-25.391,-25.879,-40.039
1789992907.825006,0.000,-30.762,-21.484,-27.832
1789992907.828815,0.000,-28.809,-20.020,-36.621
1789992907.832624,0.000,-23.438,-21.973,-62.500
1789992907.837591,-56.641,-27.344,-23.926,-53.711
1789992907.841401,-31.738,-33.203,-20.996,-42.480
1789992907.845212,-37.109,-28.809,-14.160,-50.293
1789992907.849022,-71.289,-24.414,-10.742,-44.434
1789992907.852833,-72.754,-25.391,-14.648,-41.992
1789992907.856643,-33.691,-24.414,-15.625,-32.715
1789992907.860454,-31.738,-25.391,-18.555,-26.367
1789992907.864264,-69.336,-22.461,-21.973,-25.391
1789992907.868075,-66.406,-18.066,-20.020,-33.203
1789992907.871885,-27.344,-17.090,-17.578,-41.992
1789992907.875695,-17.578,-21.973,-19.531,-29.297
1789992907.879506,-48.828,-20.020,-24.902,-45.410
1789992907.884354,-65.918,-18.066,-26.855,-63.965
1789992907.888166,-42.969,-20.996,-24.902,-50.781
1789992907.891978,-19.043,-26.367,-25.879,-41.016
1789992907.895790,-26.855,-23.438,-23.438,-35.645
1789992907.899602,-53.223,-16.602,-10.254,-39.062
1789992907.903414,-63.477,-25.879,-12.695,-58.105
1789992907.907226,-21.484,-29.297,-11.719,-17.578
1789992907.911038,-20.996,-20.508,-8.301,1.465
1789992907.914850,-65.430,-20.020,-14.648,-43.457
1789992907.918662,-57.129,-21.973,-13.184,-43.457
1789992907.922474,-11.230,-20.508,-7.812,-13.184
1789992907.926286,-18.066,-21.484,-6.348,-6.348
1789992907.931082,-62.500,-25.879,-7.812,-29.785
1789992907.934895,-60.547,-23.438,-7.812,-30.762
1789992907.938709,-22.949,-19.531,-8.789,-11.719
1789992907.942522,-10.254,-23.438,-13.672,-12.207
1789992907.946335,-51.270,-28.320,-18.555,-32.227
1789992907.950149,-79.590,-31.250,-19.043,-48.340
1789992907.953962,-58.105,-32.715,-22.461,-33.691
1789992907.957775,-25.391,-37.109,-25.879,-23.438
1789992907.961589,-35.645,-42.480,-24.414,-26.367
1789992907.965402,-58.594,-37.598,-21.484,-20.020
1789992907.969215,-47.852,-30.762,-18.066,-16.113
1789992907.973029,-19.043,-31.250,-19.043,-18.066
1789992907.977698,-21.973,-30.273,-18.066,-22.949
1789992907.981512,-44.434,-26.367,-16.113,-30.762
1789992907.985327,-46.387,-22.461,-17.090,-54.199
1789992907.989141,-28.320,-26.367,-22.949,-49.805
1789992907.992956,-14.648,-26.855,-24.414,-25.879
1789992907.996771,-41.504,-25.879,-23.926,-39.062
1789992908.000585,-65.918,-25.879,-26.367,-34.668
1789992908.004400,-41.504,-23.926,-23.438,-23.926
1789992908.008214,-18.066,-28.320,-20.996,-22.949
1789992908.012029,-43.945,-29.297,-25.879,-25.391
1789992908.015843,-62.500,-24.414,-21.973,-36.621
1789992908.019658,-41.992,-23.438,-15.137,-28.320
1789992908.024992,-15.137,-19.531,-17.578,-8.301
1789992908.028809,-39.551,-17.578,-20.508,-15.625
1789992908.032625,-68.359,-17.090,-24.414,-35.156
1789992908.036442,-53.223,-18.066,-24.414,-31.250
1789992908.040259,-20.020,-20.508,-24.414,-18.066
1789992908.044075,-22.461,-20.508,-28.320,-17.578
1789992908.047892,-60.547,-26.367,-26.367,-39.551
1789992908.051708,-67.871,-26.855,-18.555,-24.414
1789992908.055525,-41.992,-26.367,-21.484,-13.184
1789992908.059342,-28.320,-25.879,-31.250,-33.203
1789992908.063159,-49.316,-27.832,-27.832,-36.621
1789992908.066975,-68.359,-27.344,-24.902,-41.992
1789992908.072105,-39.062,-27.344,-20.996,-31.250
1789992908.075924,6.836,-27.832,-17.090,-3.906
1789992908.079742,-11.230,-30.273,-18.555,-3.906
1789992908.083560,-58.594,-35.645,-15.625,-41.016
1789992908.087379,-49.316,-34.668,-17.578,-49.316
1789992908.091197,-2.930,-34.180,-20.508,-28.809
1789992908.095016,-16.602,-36.621,-19.043,-31.250
1789992908.098834,-56.152,-34.668,-17.090,-55.176
1789992908.102652,-55.664,-34.180,-23.438,-43.945
1789992908.106471,-15.625,-33.691,-23.926,-20.020
1789992908.110289,-1.953,-28.809,-16.113,-36.621
1789992908.114107,-38.574,-28.320,-19.531,-51.270
1789992908.119092,-40.039,-30.273,-18.066,-47.363
1789992908.122912,0.488,-29.297,-11.719,-41.016
1789992908.126732,14.160,-25.391,-13.184,-39.062
1789992908.130552,-17.578,-26.367,-12.207,-39.551
1789992908.134372,-29.785,-13.672,-15.137,-34.180
1789992908.138192,-7.812,22.949,-11.719,-24.902
1789992908.142012,11.719,31.250,-6.836,-15.137
1789992908.145832,-12.695,16.113,-10.742,-19.043
1789992908.149652,-49.805,-5.371,-20.020,-45.410
1789992908.153472,-40.527,-11.230,-19.531,-49.805
1789992908.157292,2.441,-8.789,-16.602,-34.668
1789992908.161112,-1.465,-11.719,-21.484,-31.738
1789992908.166024,-35.645,-14.648,-21.973,-28.320
1789992908.169846,-35.645,-14.160,-16.602,-24.902
1789992908.173667,-0.977,-7.812,-8.301,-11.230
1789992908.177489,18.555,-5.371,-13.184,-20.996
1789992908.181310,-12.695,-9.766,-22.949,-46.387
1789992908.185131,-27.344,-16.602,-23.438,-41.504
1789992908.188953,0.000,-18.066,-24.414,-27.344
1789992908.192774,17.578,-16.602,-30.762,-19.531
1789992908.196595,-17.578,-14.160,-30.762,-10.742
1789992908.200417,-45.898,-16.113,-27.832,-26.367
1789992908.204238,-15.137,-21.973,-30.273,-39.062
1789992908.208059,17.090,-22.949,-25.879,-36.133
1789992908.212878,0.000,-28.809,-29.297,-53.223
1789992908.216701,0.000,-31.250,-34.668,-55.176
1789992908.220524,0.000,-30.273,-34.668,-51.758
1789992908.224346,0.000,-30.273,-31.250,-48.828
1789992908.228169,0.000,-27.344,-28.320,-42.480
1789992908.231992,0.000,-26.855,-32.227,-50.781
1789992908.235814,0.000,-25.391,-32.227,-52.246
1789992908.239637,0.000,-23.438,-26.367,-20.996
1789992908.243459,0.000,-17.578,-22.949,-19.531
1789992908.247282,0.000,-18.066,-23.438,-58.105
1789992908.251105,0.000,-20.996,-28.809,-65.918
1789992908.254927,0.000,-16.113,-29.785,-53.223
1789992908.259673,18.555,-16.602,-23.926,-26.855
1789992908.263497,-12.695,-19.043,-26.367,-27.344
1789992908.267321,-39.062,-21.484,-29.297,-35.645
1789992908.271144,-20.996,-20.508,-24.902,-30.762
1789992908.274968,15.137,-17.090,-25.879,-6.348
1789992908.278792,5.371,-18.066,-30.762,-22.949
1789992908.282616,-41.992,-26.855,-29.785,-57.617
1789992908.286440,-40.527,-36.133,-28.809,-41.016
1789992908.290263,4.395,-26.367,-23.438,-26.367
1789992908.294087,1.465,-23.438,-20.508,-20.996
1789992908.297911,-30.273,-24.902,-24.414,-24.414
1789992908.301735,-29.785,-24.414,-23.926,-34.180
1789992908.306436,3.418,-25.391,-25.879,-40.039
1789992908.310261,20.508,-25.879,-36.621,-35.645
1789992908.314086,-22.949,-34.180,-41.504,-46.875
1789992908.317911,-49.805,-33.691,-36.621,-49.805
1789992908.321736,-17.090,-25.391,-34.668,-41.016
1789992908.325561,13.184,-24.902,-35.156,-47.363
1789992908.329386,-18.555,-29.297,-35.645,-42.969
1789992908.333210,-41.504,-24.902,-33.691,-40.527
1789992908.337035,-23.438,-24.902,-31.738,-58.105
1789992908.340860,3.906,-38.574,-36.621,-46.387
1789992908.344685,-14.160,-44.434,-38.574,-39.551
1789992908.348510,-40.039,-36.621,-34.180,-47.363
1789992908.353122,0.000,-29.297,-31.250,-44.434
1789992908.356947,0.000,-31.738,-31.250,-40.527
1789992908.360773,0.000,-30.762,-26.855,-36.133
1789992908.364599,0.000,-29.785,-22.461,-44.434
1789992908.368425,0.000,-28.809,-23.438,-47.363
1789992908.372251,0.000,-26.367,-20.508,-29.785
1789992908.376077,0.000,-29.785,-24.902,-32.227
1789992908.379903,0.000,-27.832,-28.320,-59.082
1789992908.383728,0.000,-21.484,-24.414,-38.086
1789992908.387554,0.000,-23.438,-26.855,-8.301
1789992908.391380,0.000,-29.297,-35.645,-28.320
1789992908.395206,0.000,-32.715,-35.156,-45.898
1789992908.400284,-45.898,-30.762,-34.668,-43.457
1789992908.404112,-32.227,-25.879,-29.297,-45.410
1789992908.407939,0.488,-29.785,-25.391,-48.828
1789992908.411767,-5.371,-35.156,-26.855,-47.852
1789992908.415594,-37.109,-37.109,-25.879,-46.875
1789992908.419421,-38.574,-34.668,-25.879,-55.176
1789992908.423249,-15.137,-37.598,-30.273,-47.852
1789992908.427076,-13.184,-46.875,-35.645,-35.156
1789992908.430903,-47.852,-50.781,-29.297,-47.852
1789992908.434731,-61.035,-47.852,-26.367,-50.293
1789992908.438558,-25.391,-36.133,-20.508,-38.086
1789992908.442385,3.418,-30.273,-15.137,-22.949
1789992908.447317,-25.879,-33.691,-22.461,-29.785
1789992908.451145,-49.316,-35.156,-24.902,-48.340
1789992908.454974,-23.926,-28.320,-18.555,-42.969
1789992908.458803,14.160,-21.973,-12.207,-17.578
1789992908.462631,-7.812,-24.902,-10.254,-14.160
1789992908.466460,-58.594,-31.250,-17.090,-26.855
1789992908.470289,-38.086,-28.809,-18.066,-17.090
1789992908.474117,-3.418,-31.250,-10.254,-17.578
1789992908.477946,-13.672,-35.645,-22.461,-33.691
1789992908.481775,-47.852,-39.551,-32.715,-43.457
1789992908.485603,-52.734,-38.574,-26.367,-60.547
1789992908.489432,-23.926,-39.062,-25.391,-57.129
1789992908.494293,-19.043,-42.969,-25.879,-50.781
1789992908.498123,-44.434,-39.551,-28.809,-60.059
1789992908.501953,-49.316,-39.062,-28.320,-57.617
1789992908.505783,-18.555,-36.133,-25.391,-49.805
1789992908.509613,2.441,-32.715,-27.344,-34.180
1789992908.513443,-23.926,-35.156,-30.273,-35.645
1789992908.517272,-43.945,-35.645,-34.668,-50.781
1789992908.521102,-24.902,-34.668,-35.156,-49.316
1789992908.524932,7.812,-32.715,-30.762,-30.273
1789992908.528762,1.465,-31.738,-26.367,-32.715
1789992908.532592,-36.621,-28.320,-29.785,-39.062
1789992908.536422,-43.457,-30.762,-27.344,-28.809
1789992908.541212,-2.930,-32.227,-26.367,-21.484
1789992908.545043,10.254,-26.367,-29.785,-31.250
1789992908.548873,-39.062,-26.855,-30.273,-58.594
1789992908.552705,-44.922,-24.902,-30.273,-60.547
1789992908.556535,0.488,-17.578,-33.203,-47.852
1789992908.560367,11.719,-17.090,-29.785,-40.039
1789992908.564198,-17.578,-18.555,-22.949,-43.457
1789992908.568028,-36.621,-14.160,-21.973,-30.762
1789992908.571860,-17.578,-18.555,-21.484,-16.602
1789992908.575691,11.719,-17.578,-19.043,-19.043
1789992908.579521,-7.812,-13.672,-16.113,-19.043
1789992908.583353,-28.809,-14.648,-9.766,-27.344
1789992908.588056,-19.043,-19.531,-11.719,-27.344
1789992908.591888,5.371,-24.414,-16.602,-4.883
1789992908.595720,1.953,-22.461,-16.113,1.465
1789992908.599552,-32.227,-24.414,-15.137,-33.691
1789992908.603384,-35.156,-29.785,-19.043,-39.551
1789992908.607216,-0.977,-32.227,-20.996,-16.113
1789992908.611048,6.348,-33.203,-25.391,-25.391
1789992908.614880,-36.133,-37.109,-31.250,-36.133
1789992908.618712,-48.828,-30.273,-26.367,-25.879
1789992908.622544,-21.484,-28.809,-21.484,-22.949
1789992908.626376,0.488,-29.785,-20.996,-22.461
1789992908.630208,-21.973,-27.832,-19.043,-24.902
1789992908.634879,-52.246,-33.691,-19.043,-42.480
1789992908.638712,-28.320,-27.344,-19.043,-44.922
1789992908.642545,4.883,-22.949,-20.996,-30.762
1789992908.646378,-19.531,-32.227,-24.414,-33.203
1789992908.650211,-39.062,-30.762,-21.973,-37.109
1789992908.654044,-38.086,-28.320,-25.879,-36.621
1789992908.657876,-23.926,-33.203,-26.367,-23.438
1789992908.661710,-31.250,-34.180,-26.367,-27.344
1789992908.665542,-62.988,-31.250,-29.297,-49.316
1789992908.669375,-55.176,-33.691,-30.273,-47.363
1789992908.673208,-16.113,-37.109,-36.133,-29.297
1789992908.677041,-1.465,-41.992,-32.227,-34.668
1789992908.681634,-44.434,-41.016,-26.367,-54.688
1789992908.685468,-47.852,-34.668,-25.391,-49.805
1789992908.689301,-18.555,-35.156,-20.020,-44.922
1789992908.693135,-11.230,-35.645,-18.555,-33.691
1789992908.696969,-32.715,-32.715,-25.391,-41.016
1789992908.700803,-50.781,-33.203,-26.367,-51.270
1789992908.704637,-28.320,-32.227,-21.484,-44.434
1789992908.708470,-2.930,-34.180,-20.996,-41.992
1789992908.712304,-16.113,-38.574,-21.973,-42.969
1789992908.716138,-54.199,-41.016,-26.855,-52.246
1789992908.719972,-47.852,-38.086,-25.879,-43.457
1789992908.723806,-4.395,-30.762,-21.484,-23.926
1789992908.728299,0.977,-25.879,-21.484,-20.996
1789992908.732133,-41.504,-25.879,-25.391,-40.527
1789992908.735968,-61.035,-30.273,-29.785,-52.734
1789992908.739802,-21.973,-30.762,-29.297,-38.574
1789992908.743637,-6.348,-30.762,-27.344,-37.598
1789992908.747471,-47.852,-37.598,-36.133,-46.387
1789992908.751306,-66.406,-35.156,-41.504,-41.992
1789992908.755140,-40.039,-27.832,-32.715,-28.320
1789992908.758975,-8.301,-31.250,-33.691,-26.367
1789992908.762809,-34.180,-41.504,-42.480,-38.574
1789992908.766644,-69.336,-37.598,-39.062,-47.852
1789992908.770478,-43.945,-32.715,-33.203,-41.992
1789992908.775518,-11.230,-35.645,-35.156,-33.691
1789992908.779354,-30.762,-39.062,-43.457,-43.457
1789992908.783190,-66.406,-37.109,-44.434,-50.781
1789992908.787025,-61.523,-33.203,-41.016,-54.199
1789992908.790861,-24.414,-34.668,-42.480,-36.621
1789992908.794697,-26.367,-42.969,-44.434,-31.738
1789992908.798533,-59.570,-46.387,-48.340,-55.176
1789992908.802369,-62.988,-47.363,-48.828,-74.707
1789992908.806205,-41.504,-48.828,-46.875,-52.734
1789992908.810040,-23.438,-48.828,-46.875,-24.414
1789992908.813876,-66.406,-53.223,-47.852,-68.359
1789992908.817712,-96.191,-53.223,-49.316,-81.543
1789992908.822549,-60.059,-55.664,-48.828,-63.477
1789992908.826386,-34.668,-56.641,-51.270,-67.383
1789992908.830223,-71.777,-53.711,-50.293,-67.871
1789992908.834060,-91.309,-53.223,-43.457,-70.312
1789992908.837897,-63.965,-52.246,-43.457,-65.430
1789992908.841734,-27.344,-44.434,-41.016,-50.781
1789992908.845571,-25.391,-41.992,-39.551,-49.805
1789992908.849408,-61.523,-46.875,-42.969,-52.246
1789992908.853245,-64.453,-46.387,-39.551,-58.105
1789992908.857081,-14.160,-44.434,-33.203,-49.805
1789992908.860918,0.977,-42.480,-21.973,-39.062
1789992908.864755,-41.992,-39.551,-21.484,-35.156
1789992908.869570,-55.176,-38.574,-33.203,-32.715
1789992908.873409,-22.949,-35.645,-27.832,-26.367
1789992908.877246,6.348,-38.574,-29.785,-20.508
1789992908.881084,-18.555,-41.504,-40.039,-39.062
1789992908.884922,-43.945,-34.180,-34.668,-48.828
1789992908.888760,-26.367,-33.691,-32.715,-32.715
1789992908.892598,4.395,-34.180,-36.133,-20.996
1789992908.896436,-6.348,-39.551,-34.180,-37.109
1789992908.900274,-40.527,-41.504,-36.133,-36.133
1789992908.904112,-43.457,-40.527,-36.621,-25.879
1789992908.907950,-6.348,-38.574,-33.691,-35.156
1789992908.911788,-3.906,-32.715,-31.738,-40.527
1789992908.916478,-38.086,-33.203,-36.133,-51.270
1789992908.920316,-43.945,-36.133,-35.645,-49.316
1789992908.924155,-19.043,-41.992,-28.809,-42.480
1789992908.927994,-0.488,-38.086,-33.691,-37.598
1789992908.931833,-27.344,-33.691,-32.715,-43.457
1789992908.935672,-51.758,-27.832,-24.414,-34.180
1789992908.939511,-30.273,-24.902,-19.043,-22.949
1789992908.943349,-1.953,-28.809,-21.484,-21.973
1789992908.947188,-16.602,-28.809,-20.508,-25.391
1789992908.951027,-37.109,-25.391,-9.766,-46.875
1789992908.954866,-29.785,-19.531,-9.277,-44.434
1789992908.958704,4.883,-17.578,-8.789,-20.996
1789992908.963341,-5.371,-18.066,-14.160,-29.785
1789992908.967180,-43.945,-20.020,-15.137,-45.898
1789992908.971020,-39.551,-29.297,-14.160,-44.434
1789992908.974860,-1.465,-28.320,-15.625,-41.504
1789992908.978699,2.930,-24.414,-15.625,-15.625
1789992908.982539,-39.551,-24.902,-16.113,-23.926
1789992908.986378,-46.875,-25.879,-19.043,-52.246
1789992908.990218,-20.508,-26.367,-19.043,-35.156
1789992908.994058,-12.695,-24.414,-14.160,-32.227
1789992908.997897,-41.016,-28.320,-13.184,-40.039
1789992909.001737,-60.547,-27.344,-20.020,-31.738
1789992909.005577,-34.668,-20.020,-18.555,-17.090
1789992909.010133,3.906,-21.484,-15.137,-0.488
1789992909.013973,-13.184,-20.508,-16.113,-4.883
1789992909.017813,-42.969,-16.113,-12.207,-26.367
1789992909.021654,-33.691,-21.484,-4.883,-28.809
1789992909.025494,-0.977,-20.020,-4.395,-22.461
1789992909.029335,-6.348,-15.137,-7.812,-27.344
1789992909.033175,-36.133,-11.230,-4.883,-27.832
1789992909.037015,-28.809,-7.812,-3.418,-13.184
1789992909.040856,1.953,-9.766,-3.418,0.977
1789992909.044696,6.348,-10.742,-8.789,-1.953
1789992909.048536,-35.645,-10.254,-11.230,-16.602
1789992909.052377,-62.988,-15.137,-15.625,-31.738
1789992909.056860,-32.227,-18.555,-19.043,-27.832
1789992909.060701,-5.371,-15.137,-12.695,-7.812
1789992909.064542,-25.391,-6.348,-9.277,-22.461
1789992909.068383,-50.293,-8.301,-7.812,-36.133
1789992909.072224,-36.621,-11.719,-3.906,-15.625
1789992909.076065,-1.465,-8.789,-2.930,-8.301
1789992909.079906,-25.879,-12.695,-12.695,-10.254
1789992909.083747,-65.918,-15.137,-11.230,-29.785
1789992909.087588,-49.805,-11.719,-2.441,-34.180
1789992909.091429,-19.531,-17.090,-6.348,-20.996
1789992909.095270,-20.508,-20.996,-11.719,-31.250
1789992909.099111,-58.105,-15.625,-11.719,-37.598
1789992909.104033,-64.941,-13.184,-13.184,-38.086
1789992909.107875,-28.320,-15.137,-17.090,-20.996
1789992909.111717,-18.066,-18.066,-14.648,-2.441
1789992909.115560,-55.664,-20.508,-10.254,-18.066
1789992909.119402,-77.148,-18.555,-10.742,-23.438
1789992909.123244,-44.922,-16.113,-10.742,-3.906
1789992909.127086,-12.695,-15.137,-11.719,2.441
1789992909.130928,-38.574,-15.137,-13.184,-22.949
1789992909.134770,-69.336,-20.020,-19.531,-37.109
1789992909.138612,-46.875,-20.996,-21.973,-28.809
1789992909.142454,-13.184,-17.578,-21.973,-17.578
1789992909.146296,-41.992,-26.855,-23.926,-17.090
1789992909.151142,-76.660,-27.344,-22.949,-41.992
1789992909.154984,-65.430,-20.020,-21.973,-47.363
1789992909.158828,-38.574,-18.066,-19.043,-29.297
1789992909.162671,-36.133,-18.066,-20.508,-23.926
1789992909.166514,-70.801,-20.996,-23.926,-36.621
1789992909.170357,-68.848,-20.020,-24.414,-25.391
1789992909.174200,-28.320,-19.043,-20.508,-15.137
1789992909.178043,-17.090,-21.484,-21.973,-25.879
1789992909.181886,-58.105,-22.949,-25.391,-43.457
1789992909.185729,-89.355,-29.297,-31.250,-44.434
1789992909.189572,-62.012,-30.273,-37.109,-44.922
1789992909.193415,-30.762,-24.902,-35.156,-46.875
1789992909.198189,-64.941,-31.250,-34.180,-54.199
1789992909.202032,-86.914,-39.551,-37.109,-54.688
1789992909.205876,-61.523,-37.109,-44.434,-41.504
1789992909.209720,-28.809,-30.273,-42.969,-38.574
1789992909.213564,-36.133,-28.809,-35.645,-46.387
1789992909.217408,-71.777,-27.344,-31.738,-50.293
1789992909.221252,-66.406,-29.785,-30.273,-34.668
1789992909.225096,-20.020,-23.438,-27.832,-18.555
1789992909.228940,-11.230,-17.578,-32.227,-25.391
1789992909.232784,-60.547,-22.949,-41.016,-43.945
1789992909.236628,-71.289,-23.926,-35.645,-49.316
1789992909.240472,-31.738,-20.020,-30.273,-34.668
1789992909.245191,-10.742,-21.973,-34.180,-34.180
1789992909.249036,-34.668,-28.809,-36.133,-42.480
1789992909.252880,-48.828,-26.855,-31.738,-36.133
1789992909.256725,-34.668,-19.531,-26.855,-26.367
1789992909.260570,-7.324,-15.625,-27.832,-18.066
1789992909.264415,-33.691,-17.090,-34.668,-30.273
1789992909.268260,-67.871,-22.461,-41.504,-47.852
1789992909.272104,-44.434,-17.578,-36.621,-41.016
1789992909.275949,-0.488,-20.020,-35.156,-28.320
1789992909.279794,-11.719,-21.484,-32.227,-33.203
1789992909.283639,-50.293,-17.090,-24.902,-35.645
1789992909.287483,-49.316,-17.090,-23.438,-41.992
1789992909.292086,-19.043,-12.207,-21.973,-24.902
1789992909.295931,-7.324,-14.648,-20.996,-20.020
1789992909.299777,-39.551,-15.137,-23.926,-39.062
1789992909.303622,-52.246,-14.160,-27.832,-39.062
1789992909.307468,-20.020,-15.137,-24.902,-26.367
1789992909.311313,-2.930,-21.484,-22.461,-16.113
1789992909.315159,-39.551,-30.762,-27.832,-27.832
1789992909.319004,-55.664,-23.438,-35.156,-39.062
1789992909.322850,-35.645,-17.578,-25.391,-32.715
1789992909.326695,-19.531,-15.137,-17.578,-31.250
1789992909.330541,-34.180,-17.578,-22.461,-33.691
1789992909.334386,-58.594,-23.926,-27.344,-49.805
1789992909.338952,-48.340,-25.879,-26.367,-47.363
1789992909.342798,-11.719,-25.879,-24.902,-22.461
1789992909.346645,-16.113,-31.738,-23.926,-28.320
1789992909.350491,-41.504,-25.879,-17.578,-28.809
1789992909.354337,-34.668,-21.484,-16.602,-22.949
1789992909.358183,-9.277,-29.785,-23.926,-30.762
1789992909.362029,4.395,-30.273,-29.297,-38.574
1789992909.365875,-16.602,-30.273,-31.250,-20.020
1789992909.369722,-18.555,-29.785,-26.367,-16.602
1789992909.373568,4.395,-27.344,-21.484,-27.832
1789992909.377414,25.391,-28.320,-24.902,-21.973
1789992909.381260,-10.742,-29.785,-26.855,-47.363
1789992909.385780,-41.016,-29.785,-25.879,-37.109
1789992909.389627,-10.742,-26.367,-19.043,-16.113
1789992909.393474,15.137,-21.973,-12.207,-25.879
1789992909.397321,2.930,-22.949,-18.555,-28.809
1789992909.401167,-24.902,-23.438,-21.484,-37.598
1789992909.405014,-25.879,-23.438,-18.066,-40.527
1789992909.408861,-1.953,-24.902,-20.020,-24.414
1789992909.412708,-0.977,-21.484,-14.648,-10.254
1789992909.416554,-33.203,-20.508,-9.277,-26.367
1789992909.420401,-43.457,-20.508,-13.184,-40.527
1789992909.424248,-10.742,-20.020,-11.230,-25.391
1789992909.428095,9.766,-15.137,-6.348,-7.324
1789992909.432537,-33.691,-14.160,-8.301,-15.625
1789992909.436384,-63.477,-19.531,-13.672,-39.062
1789992909.440231,-32.227,-23.438,-18.555,-58.105
1789992909.444079,-12.207,-27.832,-21.484,-52.246
1789992909.447926,-40.039,-26.367,-23.926,-43.945
1789992909.451773,-54.688,-23.438,-25.879,-50.781
1789992909.455621,-34.668,-21.484,-21.973,-28.809
1789992909.459468,-8.301,-22.949,-21.973,-19.043
1789992909.463315,-20.508,-27.344,-20.508,-38.574
1789992909.467163,-42.480,-28.320,-21.484,-39.551
1789992909.471010,-39.062,-21.973,-18.555,-30.273
1789992909.474858,-10.742,-20.020,-13.672,-15.625
1789992909.479234,-3.418,-25.391,-20.996,-23.926
1789992909.483082,-33.691,-23.438,-20.020,-34.668
1789992909.486930,-34.668,-19.043,-16.602,-25.879
1789992909.490778,-6.836,-22.949,-15.625,-25.879
1789992909.494626,14.648,-22.461,-18.555,-22.949
1789992909.498474,-21.484,-22.949,-24.414,-35.156
1789992909.502321,-43.457,-25.879,-23.438,-29.297
1789992909.506169,-27.832,-26.855,-19.043,-6.348
1789992909.510017,-2.441,-27.832,-20.020,-0.488
1789992909.513865,-10.742,-27.832,-20.020,-18.066
1789992909.517713,-42.969,-19.043,-14.648,-37.109
1789992909.521561,-31.738,-10.254,-12.695,-27.344
1789992909.526302,0.488,-15.625,-13.184,-9.277
1789992909.530151,-4.883,-18.066,-11.719,-17.578
1789992909.533999,-36.133,-14.648,-10.742,-27.832
1789992909.537848,-41.992,-17.578,-9.277,-25.391
1789992909.541697,-15.137,-21.973,-10.742,-15.625
1789992909.545545,-7.812,-20.996,-15.625,-11.230
1789992909.549394,-43.945,-15.625,-12.207,-12.207
1789992909.553242,-52.734,-12.695,-10.742,-37.109
1789992909.557091,-29.785,-18.555,-18.066,-37.109
1789992909.560940,-5.371,-24.902,-23.438,-22.461
1789992909.564788,-19.531,-23.438,-24.414,-33.691
1789992909.568637,-47.363,-21.484,-25.391,-42.969
1789992909.573300,-41.992,-22.949,-25.391,-47.363
1789992909.577149,-8.301,-22.949,-23.438,-35.156
1789992909.580999,-10.254,-20.508,-25.879,-30.762
1789992909.584848,-47.852,-21.973,-29.785,-35.645
1789992909.588697,-45.410,-19.043,-28.320,-37.109
1789992909.592547,-4.395,-16.113,-28.809,-33.203
1789992909.596396,-4.883,-19.043,-31.738,-33.203
1789992909.600245,-43.457,-23.438,-33.691,-42.969
1789992909.604095,-50.293,-20.996,-30.273,-30.273
1789992909.607944,-20.508,-18.066,-22.949,-7.812
1789992909.611794,-6.348,-18.066,-23.438,-12.207
1789992909.615643,-40.039,-21.484,-30.762,-36.621
1789992909.620257,-53.223,-22.949,-30.762,-37.598
1789992909.624107,-26.855,-24.902,-26.367,-26.855
1789992909.627957,5.371,-26.855,-21.973,-17.090
1789992909.631807,-15.625,-26.855,-24.902,-11.230
1789992909.635657,-53.711,-24.902,-27.832,-31.738
1789992909.639507,-36.621,-23.438,-30.762,-44.922
1789992909.643357,-3.418,-31.250,-32.227,-33.691
1789992909.647207,-15.137,-31.250,-33.691,-38.086
1789992909.651057,-45.898,-26.367,-41.016,-46.387
1789992909.654907,-36.621,-23.438,-38.086,-40.039
1789992909.658757,-3.906,-17.578,-29.785,-26.367
1789992909.662607,0.000,-15.625,-33.203,-18.066
1789992909.667159,-29.297,-14.648,-35.156,-40.039
1789992909.671010,-27.344,-9.766,-28.320,-48.828
1789992909.674860,0.488,-12.207,-26.367,-29.297
1789992909.678711,5.859,-17.578,-33.691,-24.902
1789992909.682562,-20.020,-21.973,-36.621,-44.922
1789992909.686412,-43.457,-26.367,-33.203,-54.688
1789992909.690263,-31.250,-29.297,-33.691,-46.875
1789992909.694113,-5.371,-32.227,-35.645,-31.738
1789992909.697964,-24.902,-30.273,-34.180,-34.668
1789992909.701815,-43.457,-24.414,-26.855,-45.410
1789992909.705665,-16.602,-14.160,-22.949,-26.367
1789992909.709516,18.066,-12.207,-19.043,-5.859
1789992909.714025,5.371,-17.090,-19.531,-12.207
1789992909.717876,-27.344,-20.020,-28.320,-21.973
1789992909.721728,-24.902,-23.926,-32.227,-36.133
1789992909.725579,0.977,-24.414,-35.645,-27.832
1789992909.729430,7.812,-21.973,-38.574,-17.578
1789992909.733281,-27.344,-21.484,-39.551,-35.156
1789992909.737133,-37.598,-21.973,-34.180,-32.227
1789992909.740984,-8.301,-21.484,-29.297,-15.625
1789992909.744835,3.418,-24.414,-29.297,-8.301
1789992909.748686,-30.762,-26.855,-35.156,-36.621
1789992909.752537,-39.062,-20.020,-33.691,-55.664
1789992909.756388,-24.902,-20.996,-24.902,-26.855
1789992909.760846,-11.230,-20.508,-20.996,-18.066
1789992909.764698,-26.855,-18.066,-23.438,-37.109
1789992909.768549,-65.918,-20.996,-26.367,-41.992
1789992909.772401,-52.734,-18.066,-22.949,-41.504
1789992909.776253,-18.555,-20.508,-22.461,-39.551
1789992909.780105,-28.809,-28.809,-25.391,-38.574
1789992909.783956,-61.035,-22.949,-23.438,-29.297
1789992909.787808,-59.570,-21.973,-25.391,-24.414
1789992909.791660,-20.996,-21.973,-22.461,-28.809
1789992909.795511,-18.066,-23.438,-23.438,-10.254
1789992909.799363,-64.941,-30.762,-26.367,-34.668
1789992909.803215,-70.801,-30.273,-23.438,-52.246
1789992909.807632,-39.551,-23.926,-22.461,-44.434
1789992909.811484,-17.578,-26.855,-22.461,-43.945
1789992909.815336,-36.133,-27.832,-22.949,-36.621
1789992909.819189,-65.430,-21.973,-27.832,-44.922
1789992909.823041,-47.363,-24.414,-31.738,-43.457
1789992909.826893,-5.859,-22.461,-29.785,-18.066
1789992909.830745,-31.738,-24.902,-37.598,-20.508
1789992909.834597,-80.078,-21.484,-34.668,-32.715
1789992909.838450,-68.848,-19.531,-27.344,-27.832
1789992909.842302,-30.273,-22.461,-33.203,-29.297
1789992909.846154,-36.621,-29.297,-39.062,-34.668
1789992909.850006,-71.777,-35.156,-36.133,-45.410
1789992909.854331,-72.266,-28.320,-32.715,-50.293
1789992909.858184,-46.387,-27.344,-33.203,-33.203
1789992909.862036,-29.785,-30.762,-37.109,-14.648
1789992909.865889,-58.594,-30.762,-36.133,-12.695
1789992909.869741,-81.543,-20.996,-29.297,-34.180
1789992909.873594,-43.945,-14.648,-23.926,-38.086
1789992909.877446,-12.207,-15.625,-23.926,-21.973
1789992909.881299,-44.434,-18.555,-26.367,-33.203
1789992909.885152,-73.730,-15.625,-28.320,-41.504
1789992909.889004,-53.711,-14.648,-26.855,-32.715
1789992909.892857,-28.809,-23.926,-25.391,-29.785
1789992909.896709,-43.945,-25.391,-26.855,-34.668
1789992909.901385,-71.777,-22.949,-28.320,-49.316
1789992909.905238,-66.406,-20.996,-26.367,-35.156
1789992909.909091,-37.598,-24.902,-24.414,-20.996
1789992909.912945,-41.992,-30.273,-26.855,-32.715
1789992909.916798,-67.383,-32.227,-31.250,-59.570
1789992909.920651,-70.312,-33.203,-40.527,-77.148
1789992909.924505,-51.758,-31.250,-41.016,-56.152
1789992909.928358,-31.250,-37.109,-35.645,-50.293
1789992909.932211,-57.129,-44.922,-39.551,-67.383
1789992909.936064,-87.402,-44.922,-40.039,-61.523
1789992909.939918,-58.105,-40.527,-32.715,-49.805
1789992909.943771,-20.508,-41.016,-32.715,-45.898
1789992909.948402,-37.598,-38.574,-33.203,-53.711
1789992909.952256,-65.430,-32.227,-26.367,-57.617
1789992909.956110,-55.176,-28.320,-20.996,-53.711
1789992909.959964,-18.555,-28.809,-26.367,-45.410
1789992909.963818,-19.043,-30.762,-36.133,-41.504
1789992909.967672,-57.129,-33.691,-38.086,-48.340
1789992909.971526,-62.012,-32.227,-34.668,-52.734
1789992909.975379,-29.785,-38.574,-31.250,-34.668
1789992909.979234,-6.836,-43.945,-30.273,-14.648
1789992909.983087,-49.316,-35.156,-38.574,-43.945
1789992909.986941,-93.750,-31.738,-45.410,-71.777
1789992909.990795,-55.664,-31.738,-40.039,-54.688
1789992909.995355,-19.531,-25.879,-34.668,-49.805
1789992909.999209,-58.594,-27.344,-35.645,-62.988
1789992910.003064,-86.914,-31.250,-39.551,-61.035
1789992910.006918,-66.406,-29.785,-38.086,-47.852
1789992910.010773,-32.227,-31.738,-41.504,-52.246
1789992910.014627,-32.715,-40.039,-47.852,-60.547
1789992910.018481,-61.523,-32.715,-40.527,-58.105
1789992910.022336,-57.129,-29.297,-41.992,-63.477
1789992910.026191,-11.230,-28.320,-38.086,-50.293
1789992910.030045,-0.977,-22.949,-31.738,-34.668
1789992910.033900,-42.480,-30.273,-40.039,-57.129
1789992910.037754,-46.875,-32.227,-39.062,-69.336
1789992910.042257,-5.371,-26.855,-33.203,-51.758
1789992910.046112,6.348,-25.391,-32.227,-46.875
1789992910.049967,-38.086,-28.320,-30.762,-59.570
1789992910.053822,-63.477,-26.855,-29.785,-53.223
1789992910.057677,-32.227,-25.879,-29.297,-34.668
1789992910.061532,-4.395,-27.832,-27.344,-24.414
1789992910.065387,-32.227,-32.227,-23.438,-34.180
1789992910.069242,-61.035,-35.645,-29.297,-53.223
1789992910.073097,-44.922,-32.715,-30.273,-46.875
1789992910.076952,-13.672,-31.738,-20.020,-33.203
1789992910.080807,-20.508,-28.320,-22.949,-38.574
1789992910.084662,-52.734,-18.066,-38.086,-47.852
1789992910.089125,-50.781,-18.555,-36.133,-42.969
1789992910.092980,-9.766,-18.066,-21.484,-26.367
1789992910.096836,-6.348,-13.184,-25.879,-14.160
1789992910.100691,-46.875,-18.066,-29.785,-34.668
1789992910.104547,-44.434,-18.555,-27.832,-49.805
1789992910.108402,-3.906,-15.137,-30.273,-32.227
1789992910.112258,6.836,-20.020,-31.250,-34.180
1789992910.116113,-23.926,-21.973,-37.109,-42.969
1789992910.119969,-39.062,-20.020,-37.598,-38.086
1789992910.123824,-19.531,-26.367,-35.156,-54.199
1789992910.127680,6.836,-28.809,-36.133,-38.086
1789992910.131535,-11.230,-24.414,-27.832,-32.715
1789992910.135935,-37.109,-26.855,-26.367,-50.781
1789992910.139791,-30.762,-26.367,-29.297,-58.594
1789992910.143647,6.348,-23.926,-29.297,-57.617
1789992910.147503,6.836,-23.438,-28.320,-47.363
1789992910.151359,-36.621,-19.043,-27.344,-54.199
1789992910.155215,-36.133,-22.461,-32.715,-57.617
1789992910.159070,-1.953,-25.391,-33.203,-37.598
1789992910.162926,3.906,-17.090,-23.926,-9.766
1789992910.166782,-29.297,-17.578,-17.578,-27.344
1789992910.170638,-39.551,-21.973,-20.020,-32.227
1789992910.174494,-6.348,-18.066,-19.043,-13.184
1789992910.178350,19.043,-18.066,-20.996,-17.578
1789992910.182698,-3.906,-21.484,-28.320,-18.066
1789992910.186555,-38.086,-21.973,-18.066,-17.578
1789992910.190411,-32.715,-22.461,-13.672,-23.926
1789992910.194267,2.930,-15.625,-17.578,-18.066
1789992910.198124,-12.695,-19.531,-20.996,-23.438
1789992910.201980,-37.109,-23.438,-25.391,-37.598
1789992910.205836,-23.926,-22.949,-22.461,-37.598
1789992910.209692,-0.488,-27.344,-20.996,-30.762
1789992910.213549,6.348,-20.020,-15.137,-26.367
1789992910.217405,-27.344,-15.625,-15.625,-44.434
1789992910.221261,-38.574,-17.578,-17.578,-49.316
1789992910.225118,2.930,-14.648,-15.625,-29.297
1789992910.229420,17.090,-22.461,-22.949,-39.062
1789992910.233276,-30.273,-35.156,-29.785,-56.641
1789992910.237133,-47.852,-36.621,-29.297,-63.477
1789992910.240990,-19.043,-33.203,-31.738,-54.688
1789992910.244846,0.000,-33.203,-32.227,-32.227
1789992910.248703,-29.297,-30.273,-30.273,-40.527
1789992910.252559,-53.711,-27.344,-31.250,-45.898
1789992910.256416,-39.551,-33.203,-26.855,-41.504
1789992910.260273,-14.648,-39.062,-31.250,-49.316
1789992910.264129,-35.645,-43.457,-40.039,-45.898
1789992910.267986,-64.941,-38.574,-38.574,-49.805
1789992910.271843,-43.457,-35.156,-36.621,-59.570
1789992910.276488,-17.090,-35.645,-33.203,-54.688
1789992910.280345,-16.602,-36.133,-32.715,-48.340
1789992910.284202,-42.969,-37.109,-34.180,-49.805
1789992910.288059,-53.223,-39.551,-34.668,-40.527
1789992910.291917,-23.926,-43.945,-38.574,-30.762
1789992910.295774,-9.766,-40.039,-40.039,-27.344
1789992910.299631,-45.410,-38.086,-40.527,-44.922
1789992910.303488,-60.059,-31.250,-36.133,-38.574
1789992910.307346,-34.668,-28.320,-35.645,-33.203
1789992910.311203,-12.207,-37.598,-38.574,-41.016
1789992910.315060,-36.621,-38.086,-37.598,-45.898
1789992910.318918,-61.035,-30.273,-30.762,-50.781
1789992910.323497,-51.270,-30.273,-23.926,-46.875
1789992910.327355,-22.461,-38.086,-32.715,-35.156
1789992910.331213,-21.484,-35.156,-38.574,-23.438
1789992910.335071,-56.641,-32.227,-32.715,-44.922
1789992910.338928,-57.129,-37.598,-34.668,-54.199
1789992910.342786,-11.719,-36.621,-34.180,-41.504
1789992910.346644,-7.812,-27.832,-29.785,-40.527
1789992910.350502,-55.664,-27.832,-29.785,-52.246
1789992910.354359,-67.383,-32.227,-31.250,-50.781
1789992910.358217,-38.574,-33.691,-32.715,-32.715
1789992910.362075,-16.602,-28.809,-28.809,-32.227
1789992910.365933,-36.133,-25.391,-28.320,-36.621
1789992910.370823,-53.223,-25.879,-23.926,-36.133
1789992910.374682,-25.879,-28.320,-20.508,-39.062
1789992910.378540,4.883,-21.484,-17.578,-33.691
1789992910.382399,-28.809,-20.996,-22.461,-42.969
1789992910.386257,-54.688,-30.762,-20.996,-41.992
1789992910.390116,-45.410,-33.203,-19.043,-39.551
1789992910.393975,-20.508,-33.203,-28.320,-31.738
1789992910.397833,-27.344,-35.156,-26.367,-26.855
1789992910.401692,-64.453,-35.645,-21.973,-27.832
1789992910.405550,-52.246,-32.715,-21.484,-29.297
1789992910.409409,-19.043,-31.738,-19.043,-23.438
1789992910.413267,-17.090,-26.855,-18.066,-12.207
1789992910.417715,-47.852,-18.555,-17.578,-19.531
1789992910.421574,-58.594,-20.996,-16.602,-22.949
1789992910.425433,-29.785,-20.020,-13.184,-12.207
1789992910.429292,-3.906,-19.043,-12.207,-3.418
1789992910.433151,-29.785,-20.508,-15.137,-30.762
1789992910.437010,-52.246,-12.207,-13.184,-48.340
1789992910.440869,-20.508,-12.207,-17.578,-50.293
1789992910.444728,10.254,-15.137,-22.461,-40.527
1789992910.448587,-7.812,-14.648,-21.484,-31.250
1789992910.452446,-46.387,-16.602,-22.461,-40.039
1789992910.456305,-42.480,-18.066,-28.320,-36.621
1789992910.460164,-6.348,-17.090,-31.250,-25.879
1789992910.464573,-13.184,-12.695,-24.414,-25.391
1789992910.468433,-46.387,-14.648,-24.414,-45.410
1789992910.472292,-49.316,-17.090,-22.461,-45.898
1789992910.476152,-21.484,-12.207,-14.648,-31.738
1789992910.480011,-7.324,-9.766,-18.555,-15.137
1789992910.483871,-29.297,-5.371,-16.602,-3.906
1789992910.487730,-41.016,-2.441,-10.742,-32.715
1789992910.491589,-15.137,-3.906,-13.184,-45.898
1789992910.495449,5.371,-10.254,-18.555,-37.598
1789992910.499308,-22.949,-20.020,-25.391,-52.246
1789992910.503167,-56.152,-26.367,-27.832,-56.641
1789992910.507027,-54.688,-27.832,-27.832,-37.109
1789992910.511389,-18.066,-30.273,-21.484,-24.902
1789992910.515249,-31.250,-31.738,-24.414,-41.016
1789992910.519108,-63.965,-28.809,-30.762,-46.387
1789992910.522968,-57.129,-25.391,-29.785,-36.621
1789992910.526828,-26.367,-22.949,-32.715,-37.109
1789992910.530688,-20.508,-31.250,-34.180,-33.203
1789992910.534548,-41.992,-28.320,-31.738,-28.320
1789992910.538407,-37.598,-20.996,-31.738,-37.109
1789992910.542267,-12.695,-16.602,-26.367,-48.340
1789992910.546127,-3.418,-18.066,-26.855,-60.059
1789992910.549987,-36.621,-23.438,-35.156,-70.312
1789992910.553846,-61.035,-26.367,-40.039,-75.684
1789992910.558150,-21.484,-24.902,-41.016,-54.199
1789992910.562010,12.695,-19.531,-36.621,-34.668
1789992910.565870,-19.531,-20.996,-33.203,-54.688
1789992910.569730,-40.039,-18.066,-29.785,-52.734
1789992910.573590,-33.203,-22.461,-25.391,-43.945
1789992910.577450,-3.906,-28.320,-26.367,-48.340
1789992910.581310,-7.812,-28.320,-35.156,-41.016
1789992910.585170,-46.875,-28.809,-36.133,-41.992
1789992910.589031,-45.898,-25.879,-31.738,-38.574
1789992910.592891,-1.953,-22.949,-28.809,-20.996
1789992910.596750,4.395,-22.461,-23.438,-12.695
1789992910.600611,-28.809,-23.438,-18.555,-23.438
1789992910.604870,-40.527,-23.438,-17.090,-26.367
1789992910.608730,-15.625,-24.414,-22.461,-18.066
1789992910.612590,3.418,-26.855,-28.809,-12.695
1789992910.616451,-20.508,-20.508,-26.855,-17.578
1789992910.620311,-41.016,-15.625,-20.996,-22.949
1789992910.624171,-20.020,-20.996,-22.461,-20.020
1789992910.628032,8.301,-30.762,-27.344,-29.297
1789992910.631892,-15.137,-30.273,-26.855,-43.945
1789992910.635752,-36.621,-28.320,-27.832,-48.828
1789992910.639613,-25.391,-29.297,-31.738,-43.457
1789992910.643473,14.160,-21.973,-24.902,-39.062
1789992910.647334,12.207,-17.578,-20.996,-41.016
1789992910.651893,-35.645,-20.020,-25.879,-47.852
1789992910.655754,-43.457,-21.973,-27.832,-54.199
1789992910.659615,-5.859,-18.066,-20.996,-30.762
1789992910.663476,5.859,-14.648,-18.555,-14.648
1789992910.667336,-30.273,-21.973,-28.320,-32.227
1789992910.671197,-57.617,-29.297,-38.086,-39.062
1789992910.675058,-32.227,-29.297,-31.738,-32.715
1789992910.678919,2.441,-26.855,-24.902,-24.902
1789992910.682780,-34.180,-30.273,-27.832,-38.574
1789992910.686641,-66.406,-32.227,-28.320,-47.852
1789992910.690502,-37.109,-23.926,-21.484,-27.832
1789992910.694362,0.000,-19.531,-19.043,-14.648
1789992910.698875,-12.207,-24.414,-23.926,-13.184
1789992910.702737,-39.551,-24.414,-26.855,-27.344
1789992910.706598,-31.738,-15.625,-25.879,-31.250
1789992910.710459,-4.883,-14.648,-28.809,-16.602
1789992910.714320,-9.277,-19.531,-34.668,-17.578
1789992910.718182,-47.363,-21.973,-33.203,-39.551
1789992910.722043,-42.969,-20.996,-27.344,-39.062
1789992910.725904,-8.789,-26.367,-30.273,-20.020
1789992910.729766,6.348,-27.832,-36.133,-21.484
1789992910.733627,-26.367,-25.879,-42.969,-45.410
1789992910.737489,-45.410,-20.508,-41.504,-47.363
1789992910.741350,-19.043,-19.531,-35.156,-34.668
1789992910.745824,5.371,-19.043,-34.668,-34.180
1789992910.749686,-30.273,-26.855,-36.621,-41.504
1789992910.753548,-56.152,-39.062,-41.504,-63.477
1789992910.757410,-34.668,-31.738,-42.480,-56.641
1789992910.761271,9.766,-21.484,-30.762,-30.273
1789992910.765133,5.371,-24.414,-31.738,-35.645
1789992910.768995,-31.738,-25.879,-33.691,-41.016
1789992910.772857,-31.250,-21.973,-34.180,-29.785
1789992910.776718,2.441,-21.973,-34.668,-11.230
1789992910.780580,12.695,-20.508,-27.832,-15.137
1789992910.784442,-27.344,-20.020,-25.879,-31.738
1789992910.788304,-37.598,-19.531,-25.879,-32.715
1789992910.792718,-1.953,-15.137,-23.926,-20.020
1789992910.796581,14.648,-17.578,-20.996,-14.648
1789992910.800443,-22.949,-23.926,-20.996,-35.645
1789992910.804305,-40.039,-24.414,-20.020,-57.129
1789992910.808167,-19.043,-28.320,-25.879,-50.293
1789992910.812029,5.859,-30.273,-31.738,-40.039
1789992910.815891,-12.695,-24.414,-29.297,-45.410
1789992910.819753,-35.156,-23.926,-31.250,-53.223
1789992910.823616,-20.996,-26.367,-25.879,-41.992
1789992910.827478,4.395,-29.297,-20.996,-21.973
1789992910.831340,3.906,-33.691,-31.738,-35.645
1789992910.835202,-25.879,-37.598,-34.668,-51.270
1789992910.839582,-30.273,-36.133,-33.691,-49.805
1789992910.843444,-4.395,-31.250,-34.668,-58.105
1789992910.847307,2.441,-26.855,-34.668,-52.734
1789992910.851169,-25.879,-21.973,-34.180,-49.805
1789992910.855032,-43.457,-24.902,-32.715,-66.406
1789992910.858894,-18.555,-22.949,-29.297,-47.852
1789992910.862757,4.883,-18.066,-26.855,-17.578
1789992910.866619,-28.809,-20.508,-24.902,-30.273
1789992910.870482,-41.504,-20.508,-27.344,-45.410
1789992910.874344,-18.066,-16.113,-24.414,-41.016
1789992910.878207,16.113,-19.043,-19.531,-21.973
1789992910.882069,-3.418,-24.902,-19.531,-25.391
1789992910.886404,-38.574,-20.508,-19.531,-24.902
1789992910.890267,-24.414,-19.043,-21.484,-14.648
1789992910.894130,9.277,-17.090,-16.602,-16.602
1789992910.897993,-2.441,-15.137,-19.043,-14.160
1789992910.901855,-38.086,-15.625,-19.043,-28.809
1789992910.905718,-41.016,-18.066,-21.973,-37.598
1789992910.909581,-8.789,-20.996,-27.832,-30.273
1789992910.913444,5.859,-19.043,-24.902,-28.320
1789992910.917307,-25.391,-18.066,-24.414,-41.992
1789992910.921170,-40.527,-24.414,-23.438,-42.480
1789992910.925032,-17.090,-23.438,-25.391,-22.461
1789992910.928895,11.230,-16.602,-24.902,-28.809
1789992910.933179,-20.020,-16.113,-20.996,-38.086
1789992910.937042,-44.922,-14.160,-18.555,-40.039
1789992910.940906,-22.461,-12.695,-17.090,-45.410
1789992910.944769,13.184,-13.672,-14.160,-29.297
1789992910.948632,-2.930,-13.672,-13.184,-28.320
1789992910.952495,-43.457,-19.531,-13.672,-51.758
1789992910.956358,-33.691,-20.020,-16.113,-35.156
1789992910.960221,2.930,-12.207,-13.184,-13.184
1789992910.964084,4.883,-19.043,-12.695,-30.762
1789992910.967947,-25.879,-22.949,-21.484,-33.691
1789992910.971810,-20.996,-17.090,-25.879,-40.039
1789992910.975673,-4.395,-22.461,-29.297,-56.641
1789992910.980258,-9.277,-26.855,-32.227,-47.852
1789992910.984121,-36.133,-29.785,-34.180,-49.316
1789992910.987985,-49.805,-30.273,-29.785,-41.016
1789992910.991849,-14.160,-26.367,-24.414,-30.762
1789992910.995712,9.277,-26.367,-21.484,-34.180
1789992910.999576,-18.066,-26.855,-25.391,-44.434
1789992911.003439,-44.434,-23.926,-31.250,-49.316
1789992911.007303,-42.969,-28.809,-29.297,-49.805
1789992911.011167,-10.254,-28.320,-26.367,-36.621
1789992911.015030,-19.531,-22.949,-24.414,-34.668
1789992911.018894,-54.199,-25.391,-24.902,-40.039
1789992911.022757,-47.363,-24.902,-22.949,-34.180
1789992911.027281,-19.043,-24.414,-20.020,-25.391
1789992911.031145,-14.160,-23.926,-20.996,-20.020
1789992911.035009,-49.316,-27.832,-21.484,-35.645
1789992911.038872,-59.570,-31.250,-18.066,-42.969
1789992911.042737,-29.297,-33.691,-17.578,-19.043
1789992911.046601,-17.578,-33.203,-23.926,-12.695
1789992911.050465,-37.109,-27.344,-27.832,-37.109
1789992911.054329,-52.246,-24.414,-28.320,-41.016
1789992911.058193,-32.227,-28.320,-33.691,-32.715
1789992911.062057,0.000,-29.785,-31.738,-22.949
1789992911.065921,-24.414,-30.273,-26.855,-50.293
1789992911.069785,-54.688,-37.598,-27.344,-63.477
1789992911.074265,-45.898,-36.621,-27.832,-42.480
1789992911.078130,-21.973,-38.086,-27.344,-25.879
1789992911.081994,-28.320,-39.062,-26.367,-31.738
1789992911.085859,-49.805,-32.715,-24.414,-42.480
1789992911.089723,-49.805,-32.715,-24.902,-32.227
1789992911.093587,-18.555,-35.645,-28.809,-31.250
1789992911.097452,-5.859,-37.109,-36.133,-42.480
1789992911.101316,-47.363,-36.133,-38.086,-48.828
1789992911.105181,-58.105,-33.203,-32.227,-38.574
1789992911.109045,-20.508,-27.344,-26.855,-32.715
1789992911.112910,6.836,-22.949,-27.344,-28.320
1789992911.116774,-28.809,-25.879,-25.391,-24.414
1789992911.121197,-55.176,-28.320,-20.020,-29.785
1789992911.125062,-25.391,-26.855,-17.578,-15.625
1789992911.128927,-0.488,-28.809,-21.973,-19.531
1789992911.132792,-21.973,-31.738,-27.832,-40.039
1789992911.136656,-57.129,-29.297,-28.320,-56.152
1789992911.140521,-57.617,-27.344,-29.785,-58.105
1789992911.144386,-11.230,-26.855,-24.902,-36.133
1789992911.148251,-3.418,-23.438,-20.996,-27.344
1789992911.152115,-52.734,-25.879,-25.879,-35.156
1789992911.155980,-65.430,-30.273,-27.344,-37.598
1789992911.159845,-26.855,-20.508,-26.367,-23.438
1789992911.163710,-7.812,-14.648,-25.879,-17.578
1789992911.168084,-43.945,-21.484,-28.809,-41.504
1789992911.171949,-50.293,-19.531,-21.484,-40.039
1789992911.175814,-27.832,-22.461,-15.625,-18.066
1789992911.179679,-11.719,-26.367,-23.926,-16.113
1789992911.183545,-19.531,-21.973,-30.762,-34.180
1789992911.187410,-41.992,-15.137,-25.879,-42.480
1789992911.191275,-35.156,-16.113,-21.973,-35.645
1789992911.195140,-2.441,-23.438,-22.461,-21.973
1789992911.199005,-14.648,-21.973,-21.973,-16.113
1789992911.202870,-51.270,-27.832,-27.344,-28.320
1789992911.206735,-46.875,-32.227,-33.691,-43.945
1789992911.210601,-11.230,-29.785,-32.227,-27.832
1789992911.214933,-1.953,-24.414,-28.809,-30.762
1789992911.218799,-33.203,-20.020,-25.879,-40.527
1789992911.222664,-40.527,-22.461,-25.391,-27.344
1789992911.226530,-12.207,-26.367,-30.273,-36.133
1789992911.230395,4.883,-29.297,-36.133,-26.855
1789992911.234261,-20.996,-35.645,-38.086,-29.785
1789992911.238126,-55.176,-37.598,-41.016,-54.199
1789992911.241992,-45.410,-36.621,-46.387,-39.062
1789992911.245857,-15.625,-37.598,-47.363,-35.156
1789992911.249722,-32.715,-33.203,-43.457,-40.039
1789992911.253588,-62.012,-28.809,-40.039,-28.809
1789992911.257453,-58.105,-29.785,-37.598,-33.203
1789992911.261766,-21.484,-32.715,-35.645,-37.109
1789992911.265632,-29.297,-34.668,-36.621,-26.855
1789992911.269497,-67.383,-32.715,-38.086,-29.297
1789992911.273363,-67.383,-32.715,-39.062,-35.645
1789992911.277229,-41.504,-35.156,-41.016,-30.273
1789992911.281095,-29.785,-37.109,-43.457,-39.551
1789992911.284960,-56.152,-40.039,-39.551,-54.199
1789992911.288826,-64.941,-33.203,-33.691,-40.527
1789992911.292692,-35.645,-25.879,-30.762,-30.273
1789992911.296557,-16.602,-28.320,-31.250,-21.484
1789992911.300423,-45.898,-31.738,-41.504,-42.480
1789992911.304289,-81.543,-31.738,-45.410,-60.547
1789992911.308568,-59.082,-33.691,-42.969,-40.039
1789992911.312433,-18.066,-34.668,-41.504,-31.250
1789992911.316299,-47.363,-32.715,-41.016,-51.758
1789992911.320165,-80.566,-30.762,-30.273,-49.316
1789992911.324031,-62.012,-30.273,-26.855,-42.969
1789992911.327898,-30.273,-28.809,-30.762,-40.039
1789992911.331764,-26.855,-28.320,-31.250,-19.531
1789992911.335629,-61.035,-27.832,-35.156,-34.668
1789992911.339495,-62.500,-25.391,-40.527,-66.406
1789992911.343361,-23.438,-24.414,-36.621,-54.199
1789992911.347227,-14.648,-21.973,-37.109,-39.551
1789992911.351093,-50.293,-19.043,-42.480,-54.688
1789992911.355384,-59.570,-20.020,-37.109,-58.594
1789992911.359250,-41.504,-23.438,-37.109,-36.133
1789992911.363117,-18.555,-29.297,-36.133,-19.043
1789992911.366983,-35.645,-34.668,-32.715,-32.227
1789992911.370849,-64.453,-34.668,-32.227,-50.781
1789992911.374715,-43.457,-36.133,-29.785,-41.016
1789992911.378582,-12.695,-33.203,-25.879,-22.461
1789992911.382448,-32.227,-28.809,-19.531,-33.691
1789992911.386314,-60.547,-26.855,-19.531,-40.527
1789992911.390180,-50.781,-25.391,-24.902,-28.320
1789992911.394047,-20.508,-25.879,-27.832,-28.320
1789992911.397913,-27.832,-27.832,-24.902,-39.551
1789992911.402416,-64.941,-32.715,-29.785,-56.152
1789992911.406283,-65.430,-35.645,-35.156,-57.617
1789992911.410150,-27.832,-37.109,-36.621,-44.922
1789992911.414016,-16.113,-31.250,-38.086,-34.668
1789992911.417883,-50.781,-29.297,-38.086,-37.109
1789992911.421750,-62.500,-32.715,-39.062,-50.293
1789992911.425616,-27.344,-29.297,-33.691,-44.922
1789992911.429483,-9.766,-28.320,-32.227,-30.273
1789992911.433350,-29.785,-30.762,-39.551,-38.086
1789992911.437216,-50.781,-34.668,-44.434,-42.480
1789992911.441083,-46.387,-38.574,-42.969,-31.250
1789992911.444950,-6.836,-35.645,-40.039,-37.109
1789992911.449412,-16.602,-27.832,-39.062,-48.828
1789992911.453279,-51.270,-28.320,-42.480,-54.199
1789992911.457146,-45.898,-35.156,-41.992,-62.988
1789992911.461014,-19.531,-32.227,-35.156,-40.039
1789992911.464880,-18.066,-33.203,-37.109,-24.414
1789992911.468748,-50.781,-35.645,-36.133,-32.227
1789992911.472615,-59.570,-34.668,-29.297,-39.062
1789992911.476482,-38.086,-36.621,-30.762,-46.875
1789992911.480349,-22.949,-34.180,-32.715,-33.691
1789992911.484216,-50.293,-32.715,-30.762,-37.598
1789992911.488083,-70.312,-32.227,-23.438,-48.340
1789992911.491950,-49.805,-28.809,-19.043,-37.109
1789992911.496712,-21.973,-26.367,-23.438,-32.715
1789992911.500580,-37.598,-22.949,-27.344,-53.711
1789992911.504447,-63.965,-19.531,-23.926,-55.664
1789992911.508315,-62.988,-20.508,-24.902,-36.133
1789992911.512182,-35.156,-20.020,-35.156,-39.551
1789992911.516050,-41.504,-26.855,-36.621,-43.945
1789992911.519918,-67.871,-29.785,-28.320,-31.738
1789992911.523785,-56.152,-19.531,-22.461,-33.203
1789992911.527653,-23.926,-13.672,-28.809,-29.785
1789992911.531521,-9.277,-14.160,-33.203,-26.367
1789992911.535388,-39.551,-15.137,-30.273,-49.316
1789992911.539256,-50.781,-15.625,-29.785,-36.621
1789992911.543595,-18.555,-10.254,-25.879,-14.160
1789992911.547463,4.883,-12.207,-22.461,-14.160
1789992911.551331,-11.230,-12.695,-26.367,-16.113
1789992911.555198,-33.691,-13.184,-29.297,-20.508
1789992911.559066,-19.043,-18.066,-26.367,-5.859
1789992911.562934,6.348,-21.484,-26.367,13.184
1789992911.566802,-14.648,-20.996,-25.391,-6.836
1789992911.570670,-38.574,-18.066,-22.949,-24.414
1789992911.574538,-23.438,-22.949,-20.508,-6.836
1789992911.578406,7.812,-24.902,-17.578,7.324
1789992911.582273,-5.859,-30.762,-28.320,-8.301
1789992911.586141,-44.434,-34.668,-32.227,-9.766
1789992911.590752,-44.922,-24.414,-23.438,-3.418
1789992911.594620,-8.789,-19.043,-21.973,-1.465
1789992911.598488,9.277,-23.438,-28.809,-4.395
1789992911.602356,-20.020,-20.996,-28.809,-20.996
1789992911.606225,-37.109,-21.973,-30.273,-27.832
1789992911.610093,-22.949,-29.297,-38.086,-22.461
1789992911.613961,1.465,-30.762,-36.133,-11.230
1789992911.617830,-23.926,-30.762,-32.227,-19.043
1789992911.621698,-48.340,-34.668,-26.855,-32.227
1789992911.625566,-24.902,-41.016,-21.973,-20.508
1789992911.629435,8.301,-42.969,-25.879,0.488
1789992911.633303,-9.277,-41.992,-30.762,-21.484
1789992911.637586,0.000,-34.668,-26.855,-28.320
1789992911.641455,0.000,-35.156,-24.414,-16.113
1789992911.645323,0.000,-38.574,-26.855,-19.043
1789992911.649192,0.000,-34.180,-25.391,-8.789
1789992911.653060,0.000,-32.227,-20.020,-6.348
1789992911.656929,0.000,-35.645,-26.855,-20.996
1789992911.660798,0.000,-42.969,-32.227,-28.320
1789992911.664666,0.000,-40.039,-26.855,-20.996
1789992911.668535,0.000,-41.016,-29.297,-28.809
1789992911.672403,0.000,-43.945,-34.180,-39.551
1789992911.676272,0.000,-40.527,-34.180,-31.250
1789992911.680140,0.000,-37.109,-27.344,-28.809
1789992911.684358,-8.789,-34.668,-27.832,-48.340
1789992911.688227,-34.668,-39.551,-29.297,-45.898
1789992911.692096,-23.926,-41.016,-28.809,-32.227
1789992911.695965,15.137,-33.691,-26.367,-36.621
1789992911.699834,12.207,-28.809,-22.949,-37.598
1789992911.703702,-25.879,-29.785,-27.344,-36.133
1789992911.707571,-24.414,-29.785,-31.738,-41.992
1789992911.711440,-3.906,-30.762,-35.156,-37.109
1789992911.715309,-3.418,-28.809,-33.691,-43.945
1789992911.719177,-32.227,-31.738,-33.691,-45.410
1789992911.723046,-44.434,-41.504,-36.133,-43.945
1789992911.726915,-22.949,-39.062,-39.062,-40.527
1789992911.731145,-6.836,-37.109,-40.527,-32.715
1789992911.735014,-35.156,-38.086,-41.016,-39.551
1789992911.738883,-52.734,-38.086,-35.645,-38.574
1789992911.742752,-29.785,-42.969,-29.297,-30.762
1789992911.746621,-5.371,-43.945,-30.273,-18.066
1789992911.750490,-21.484,-36.621,-33.691,-17.578
1789992911.754359,-50.781,-33.203,-36.621,-28.809
1789992911.758228,-33.691,-32.227,-31.250,-33.691
1789992911.762097,8.789,-23.926,-17.578,-19.043
1789992911.765966,-1.953,-26.855,-18.555,-16.113
1789992911.769835,-46.875,-36.621,-28.320,-29.297
1789992911.773704,-44.434,-37.598,-31.738,-32.715
1789992911.778183,-7.324,-35.156,-30.273,-17.578
1789992911.782052,-3.906,-35.645,-32.715,-14.648
1789992911.785921,-32.227,-36.133,-33.203,-38.574
1789992911.789791,-45.410,-38.574,-38.574,-43.945
1789992911.793660,-18.066,-39.062,-43.945,-25.391
1789992911.797529,1.465,-39.551,-42.480,-19.531
1789992911.801399,-29.297,-36.133,-45.898,-46.387
1789992911.805268,-47.852,-38.574,-56.152,-54.199
1789992911.809137,-28.809,-37.109,-58.105,-45.898
1789992911.813007,-5.371,-31.738,-53.711,-44.922
1789992911.816876,-19.043,-37.598,-49.805,-47.852
1789992911.820745,-45.898,-36.133,-44.434,-37.598
1789992911.825144,-23.926,-27.832,-43.457,-30.273
1789992911.829014,16.113,-25.391,-40.527,-29.297
1789992911.832884,7.324,-24.414,-31.250,-25.391
1789992911.836753,-31.738,-25.879,-26.855,-46.387
1789992911.840623,-40.527,-28.320,-25.879,-61.523
1789992911.844492,-21.973,-28.809,-22.461,-50.781
1789992911.848362,-16.602,-28.809,-24.414,-49.316
1789992911.852232,-46.875,-30.762,-29.785,-71.289
1789992911.856102,-62.988,-32.715,-29.785,-56.641
1789992911.859971,-41.016,-33.203,-22.461,-31.250
1789992911.863841,-10.742,-25.391,-15.137,-26.855
1789992911.867711,-27.344,-20.996,-22.461,-25.879
1789992911.872046,-55.664,-26.367,-24.414,-41.504
1789992911.875916,-39.062,-24.414,-18.555,-47.852
1789992911.879786,3.906,-18.555,-14.648,-37.109
1789992911.883656,-14.648,-22.949,-18.066,-41.504
1789992911.887525,-59.082,-33.203,-25.391,-54.199
1789992911.891395,-41.992,-36.621,-26.367,-34.180
1789992911.895265,-6.348,-36.133,-23.926,-22.949
1789992911.899135,-6.836,-35.156,-25.879,-37.109
1789992911.903005,-41.504,-32.715,-34.668,-41.504
1789992911.906875,-51.758,-33.691,-38.086,-45.898
1789992911.910745,-12.207,-34.180,-38.574,-42.969
1789992911.914615,11.719,-33.691,-40.527,-41.992
1789992911.918929,-19.043,-26.855,-36.621,-52.734
1789992911.922799,-41.504,-24.902,-27.832,-58.105
1789992911.926669,-23.926,-27.344,-24.902,-49.805
1789992911.930539,6.348,-21.973,-26.367,-34.668
1789992911.934410,-21.484,-24.414,-26.367,-48.340
1789992911.938280,-55.664,-29.297,-25.391,-62.988
1789992911.942150,-41.016,-31.738,-25.879,-58.105
1789992911.946020,-7.324,-34.180,-32.227,-43.457
1789992911.949890,-21.973,-31.738,-33.691,-35.156
1789992911.953761,-62.988,-27.344,-31.250,-50.293
1789992911.957631,-59.082,-27.344,-35.156,-56.641
1789992911.961501,-20.508,-25.879,-31.250,-47.852
1789992911.965797,-16.602,-24.902,-30.273,-62.012
1789992911.969668,-49.316,-25.391,-31.250,-62.500
1789992911.973538,-49.316,-23.926,-22.461,-41.016
1789992911.977409,-15.625,-22.461,-20.996,-23.926
1789992911.981279,-4.395,-21.484,-27.344,-7.812
1789992911.985149,-27.344,-24.414,-27.832,-19.043
1789992911.989020,-39.551,-31.738,-28.320,-29.785
1789992911.992890,-17.578,-32.227,-29.297,-20.020
1789992911.996761,-1.953,-25.879,-22.949,-9.766
1789992912.000631,-39.551,-27.344,-27.832,-30.273
1789992912.004502,-54.199,-28.320,-32.227,-43.945
1789992912.008372,-47.363,-31.250,-30.762,-32.715
1789992912.012609,-15.625,-34.180,-29.785,-25.879
1789992912.016479,-3.906,-35.156,-27.832,-30.273
1789992912.020350,-44.434,-34.668,-28.320,-36.133
1789992912.024221,-51.270,-34.668,-28.320,-40.039
1789992912.028091,-13.672,-35.645,-28.809,-37.598
1789992912.031962,0.488,-35.645,-36.621,-35.156
1789992912.035833,-32.715,-37.598,-45.410,-50.293
1789992912.039703,-45.898,-37.109,-48.340,-45.898
1789992912.043574,-18.066,-34.668,-38.574,-33.203
1789992912.047445,-7.812,-34.668,-37.109,-41.504
1789992912.051315,-26.855,-34.668,-41.992,-51.270
1789992912.055186,-41.992,-33.691,-41.016,-46.875
1789992912.059417,0.000,-29.785,-35.645,-36.133
1789992912.063288,0.000,-32.715,-37.109,-24.902
1789992912.067159,0.000,-33.203,-34.180,-29.297
1789992912.071030,0.000,-26.855,-23.438,-34.180
1789992912.074901,0.000,-25.879,-21.973,-26.367
1789992912.078772,0.000,-28.320,-22.949,-15.625
1789992912.082643,0.000,-28.320,-24.414,-17.090
1789992912.086514,0.000,-26.855,-20.508,-32.715
1789992912.090384,0.000,-26.855,-19.043,-28.320
1789992912.094255,0.000,-24.902,-20.508,-7.812
1789992912.098126,0.000,-23.926,-19.043,-4.395
1789992912.101997,0.000,-25.391,-20.020,-21.973
1789992912.105407,-29.785,-22.949,-20.996,-26.367
1789992912.109277,1.465,-21.973,-19.043,-11.230
1789992912.113148,-10.742,-25.879,-23.926,-12.695
1789992912.117018,-41.016,-23.926,-22.949,-27.344
1789992912.120889,-25.879,-24.902,-20.996,-29.785
1789992912.124760,17.090,-33.203,-25.391,-40.039
1789992912.128630,19.043,-32.227,-24.902,-33.203
1789992912.132501,-11.230,-28.809,-20.020,-39.062
1789992912.136371,-7.812,-29.785,-24.414,-57.617
1789992912.140242,10.254,-25.879,-29.297,-53.711
1789992912.144113,32.715,-23.438,-26.367,-42.969
1789992912.147983,-2.441,-25.391,-32.227,-43.457
1789992912.151812,-44.434,-27.344,-32.227,-54.199
1789992912.155683,-7.812,-23.926,-24.902,-59.082
1789992912.159553,16.602,-23.926,-19.043,-37.598
1789992912.163424,-10.254,-21.973,-22.461,-28.320
1789992912.167295,-38.574,-24.414,-29.297,-43.945
1789992912.171165,-34.668,-30.273,-26.855,-47.363
1789992912.175036,-7.812,-26.367,-25.879,-45.410
1789992912.178906,-16.113,-26.855,-26.855,-33.203
1789992912.182777,-43.945,-27.344,-21.973,-30.762
1789992912.186647,-41.016,-23.438,-16.113,-27.344
1789992912.190518,-10.742,-21.973,-24.902,-19.531
1789992912.194389,-9.277,-26.855,-25.391,-26.855
1789992912.198795,-29.297,-32.227,-17.578,-36.621
1789992912.202666,-69.336,-33.203,-21.973,-52.734
1789992912.206537,-62.012,-33.203,-25.879,-54.199
1789992912.210407,-21.484,-32.715,-24.902,-46.387
1789992912.214278,-20.020,-34.180,-26.367,-40.039
1789992912.218149,-64.941,-29.785,-29.785,-38.086
1789992912.222020,-59.082,-24.414,-29.297,-44.922
1789992912.225891,-26.855,-26.367,-23.926,-30.762
1789992912.229762,-9.277,-27.832,-23.438,-21.484
1789992912.233633,-31.250,-25.879,-29.297,-27.832
1789992912.237503,-62.500,-30.762,-30.762,-39.062
1789992912.241374,-46.387,-34.668,-28.320,-41.992
1789992912.245727,-6.348,-29.785,-29.785,-18.555
1789992912.249599,-26.367,-26.855,-29.297,-31.250
1789992912.253470,-64.941,-24.414,-27.344,-41.016
1789992912.257341,-44.922,-21.973,-26.367,-28.320
1789992912.261212,-12.695,-27.832,-24.902,-17.578
1789992912.265083,-20.020,-31.738,-23.926,-19.043
1789992912.268954,-53.711,-26.855,-19.531,-35.645
1789992912.272825,-56.152,-23.438,-20.996,-49.316
1789992912.276696,-20.020,-26.855,-20.508,-41.992
1789992912.280568,-11.230,-26.855,-22.949,-33.691
1789992912.284439,-53.711,-24.902,-28.320,-47.852
1789992912.288310,-62.988,-21.484,-29.785,-57.129
1789992912.292636,-33.691,-20.508,-32.227,-47.363
1789992912.296507,-4.395,-21.973,-35.156,-28.809
1789992912.300379,-26.367,-26.367,-28.320,-42.969
1789992912.304250,-83.984,-33.203,-21.973,-58.105
1789992912.308121,-74.219,-30.273,-21.973,-51.758
1789992912.311993,-33.203,-28.809,-22.461,-55.664
1789992912.315864,-50.293,-27.344,-28.809,-68.359
1789992912.319736,-85.938,-27.344,-27.344,-66.895
1789992912.323607,-83.008,-30.273,-15.625,-53.711
1789992912.327478,-47.363,-33.203,-22.461,-53.223
1789992912.331350,-48.340,-37.598,-33.691,-55.664
1789992912.335221,-77.148,-33.203,-25.391,-46.875
1789992912.339506,-71.777,-28.320,-20.020,-43.945
1789992912.343377,-44.434,-30.273,-21.973,-46.387
1789992912.347249,-22.461,-30.762,-23.926,-34.668
1789992912.351121,-57.129,-30.762,-26.855,-38.086
1789992912.354992,-80.566,-32.227,-24.414,-31.738
1789992912.358864,-39.551,-34.180,-25.391,-18.555
1789992912.362736,-4.395,-29.297,-30.273,-18.555
1789992912.366607,-27.832,-26.855,-27.832,-20.508
1789992912.370479,-63.965,-26.855,-28.320,-31.250
1789992912.374350,-37.109,-27.832,-32.227,-37.109
1789992912.378222,-0.488,-29.297,-30.762,-31.250
1789992912.382094,-19.043,-29.297,-34.180,-40.039
1789992912.386349,-46.387,-26.367,-41.504,-54.199
1789992912.390221,-34.180,-21.973,-42.969,-45.898
1789992912.394093,-1.953,-25.879,-40.039,-23.926
1789992912.397965,3.906,-26.855,-38.574,-14.648
1789992912.401836,-36.133,-30.273,-40.527,-27.344
1789992912.405708,-49.316,-34.180,-35.645,-41.504
1789992912.409580,-8.789,-33.691,-31.738,-36.621
1789992912.413452,11.719,-34.180,-34.180,-30.273
1789992912.417324,-29.297,-32.715,-34.180,-51.758
1789992912.421196,-48.340,-28.320,-34.180,-57.129
1789992912.425067,-26.367,-29.297,-29.785,-44.922
1789992912.428939,-0.488,-27.832,-23.438,-27.344
1789992912.433149,-9.766,-23.438,-19.531,-27.344
1789992912.437021,-21.484,-25.391,-22.461,-40.527
1789992912.440893,-25.879,-25.879,-24.414,-42.969
1789992912.444765,-15.625,-23.926,-24.414,-36.621
1789992912.448637,-20.020,-27.832,-33.691,-43.945
1789992912.452509,-45.410,-35.156,-34.668,-48.828
1789992912.456381,-46.387,-36.621,-31.738,-36.621
1789992912.460253,-8.789,-34.668,-36.621,-34.180
1789992912.464125,-0.977,-38.574,-40.039,-42.480
1789992912.467997,-49.805,-41.016,-43.945,-43.945
1789992912.471869,-45.898,-33.691,-41.504,-40.039
1789992912.475741,0.000,-25.879,-38.086,-35.156
1789992912.479925,12.207,-25.391,-43.457,-35.645
1789992912.483797,-28.809,-28.809,-49.805,-50.293
1789992912.487669,-49.316,-25.391,-45.898,-48.340
1789992912.491541,-30.273,-23.926,-38.086,-40.527
1789992912.495413,-14.160,-24.414,-37.598,-50.293
1789992912.499285,-21.484,-26.367,-37.598,-48.828
1789992912.503158,-52.246,-26.367,-34.668,-37.109
1789992912.507030,-53.711,-24.902,-30.273,-36.621
1789992912.510902,-13.672,-29.785,-31.738,-22.949
1789992912.514774,-25.879,-36.133,-37.109,-21.973
1789992912.518646,-71.289,-38.086,-35.156,-28.320
1789992912.522518,-63.477,-34.668,-26.855,-21.973
1789992912.526944,-32.227,-32.715,-24.414,-15.137
1789992912.530817,-20.508,-27.344,-22.949,-16.602
1789992912.534689,-48.340,-23.926,-26.367,-31.738
1789992912.538562,-66.406,-26.367,-27.344,-37.109
1789992912.542434,-39.062,-30.762,-28.320,-37.109
1789992912.546307,-8.301,-35.645,-37.109,-27.344
1789992912.550179,-33.691,-32.715,-35.645,-33.203
1789992912.554052,-59.570,-29.785,-36.621,-46.875
1789992912.557924,-35.645,-32.715,-36.621,-26.855
1789992912.561797,0.000,-25.879,-30.273,-11.230
1789992912.565669,-28.320,-20.508,-36.621,-41.016
1789992912.569541,-63.477,-24.414,-43.945,-57.617
1789992912.573924,-38.086,-29.297,-43.457,-37.598
1789992912.577797,-7.324,-30.762,-41.016,-22.461
1789992912.581670,-8.789,-30.273,-34.180,-17.090
1789992912.585542,-46.387,-30.762,-31.250,-33.691
1789992912.589415,-60.547,-29.785,-34.668,-40.527
1789992912.593288,-27.832,-31.250,-30.273,-37.598
1789992912.597161,-3.418,-29.785,-30.762,-30.273
1789992912.601033,-26.855,-28.320,-32.715,-29.297
1789992912.604906,-49.316,-26.855,-29.297,-27.832
1789992912.608779,-31.250,-28.809,-23.438,-11.230
1789992912.612652,-9.766,-27.832,-21.484,-11.719
1789992912.616524,-25.879,-30.273,-25.391,-20.996
1789992912.620854,-53.223,-34.180,-25.391,-25.879
1789992912.624727,-45.898,-32.227,-24.902,-20.996
1789992912.628600,-12.207,-30.273,-25.391,2.441
1789992912.632473,-18.555,-33.203,-24.902,-4.395
1789992912.636346,-58.594,-33.691,-28.809,-31.738
1789992912.640219,-66.406,-34.180,-31.738,-39.551
1789992912.644092,-29.785,-34.180,-28.320,-28.320
1789992912.647965,-20.996,-33.203,-33.203,-18.555
1789992912.651838,-48.340,-27.832,-33.203,-32.227
1789992912.655711,-53.223,-20.996,-21.973,-33.691
1789992912.659584,-33.203,-25.391,-21.484,-19.531
1789992912.663457,-8.301,-26.855,-25.391,-15.137
1789992912.667760,-25.391,-25.391,-28.320,-32.715
1789992912.671634,-50.293,-27.344,-30.273,-39.551
1789992912.675507,-28.320,-24.902,-29.297,-25.879
1789992912.679380,-1.953,-26.855,-29.785,-20.996
1789992912.683253,-25.879,-31.250,-30.762,-23.926
1789992912.687126,-57.617,-30.762,-34.180,-37.598
1789992912.691000,-41.016,-26.855,-34.180,-43.945
1789992912.694873,5.859,-24.414,-34.180,-34.180
1789992912.698746,1.465,-21.484,-33.203,-24.414
1789992912.702619,-44.434,-20.508,-32.227,-40.527
1789992912.706492,-46.387,-28.320,-33.691,-43.457
1789992912.710366,-15.137,-40.527,-37.109,-34.668
1789992912.714631,-14.160,-45.410,-40.527,-43.945
1789992912.718504,-60.547,-47.363,-41.016,-50.293
1789992912.722378,-78.125,-45.898,-41.992,-54.199
1789992912.726251,-54.199,-45.410,-40.527,-51.758
1789992912.730124,-34.668,-51.758,-36.621,-32.227
1789992912.733998,-47.363,-50.781,-28.809,-21.484
1789992912.737871,-58.105,-41.992,-22.949,-23.438
1789992912.741745,-37.598,-39.062,-23.926,-24.902
1789992912.745618,-8.301,-36.621,-26.367,-12.695
1789992912.749491,-24.414,-36.133,-30.762,-23.438
1789992912.753365,-63.965,-36.621,-36.133,-37.109
1789992912.757238,-54.688,-33.203,-31.738,-28.809
1789992912.761471,-16.113,-36.621,-28.809,-21.484
1789992912.765345,-9.766,-33.203,-29.785,-29.785
1789992912.769218,-44.922,-26.855,-31.250,-46.875
1789992912.773092,-56.152,-28.320,-32.715,-52.246
1789992912.776965,-26.855,-29.297,-30.762,-44.922
1789992912.780839,-17.090,-32.715,-32.227,-43.457
1789992912.784713,-43.457,-33.691,-35.645,-48.828
1789992912.788586,-62.500,-35.645,-39.551,-44.434
1789992912.792460,-47.363,-28.320,-33.691,-30.273
1789992912.796333,-16.602,-22.461,-26.855,-36.621
1789992912.800207,-35.645,-30.273,-31.738,-54.199
1789992912.804080,-64.453,-35.645,-29.785,-57.617
1789992912.808289,-42.969,-34.180,-22.461,-48.340
1789992912.812163,-3.906,-30.273,-20.020,-30.762
1789992912.816036,-21.973,-30.762,-22.949,-35.156
1789992912.819910,-61.523,-31.738,-19.531,-46.875
1789992912.823784,-59.570,-31.250,-19.043,-48.340
1789992912.827657,-20.996,-32.227,-16.602,-30.762
1789992912.831531,-6.836,-34.180,-11.719,-19.531
1789992912.835405,-57.129,-34.668,-6.836,-34.668
1789992912.839279,-84.473,-33.203,-8.301,-46.875
1789992912.843153,-48.340,-32.715,-11.230,-34.668
1789992912.847026,-20.020,-33.203,-10.254,-34.180
1789992912.850900,-50.781,-37.598,-18.066,-57.617
1789992912.855071,-74.219,-37.109,-21.484,-65.430
1789992912.858944,-38.086,-36.133,-19.043,-53.223
1789992912.862818,-0.977,-35.156,-19.043,-42.969
1789992912.866692,-38.574,-36.133,-22.949,-53.711
1789992912.870566,-69.336,-42.969,-25.879,-62.500
1789992912.874440,-47.852,-40.039,-31.250,-59.082
1789992912.878314,-18.555,-34.180,-30.762,-47.852
1789992912.882188,-25.879,-28.809,-27.344,-50.293
1789992912.886062,-59.082,-30.762,-34.180,-70.312
1789992912.889936,-51.270,-35.645,-37.109,-66.406
1789992912.893810,-12.695,-33.203,-29.785,-43.457
1789992912.897683,-3.418,-28.320,-28.320,-49.316
1789992912.902087,0.000,-31.250,-28.320,-56.152
1789992912.905961,0.000,-33.691,-27.344,-54.199
1789992912.909835,0.000,-31.738,-21.973,-37.598
1789992912.913709,0.000,-33.691,-22.949,-18.066
1789992912.917584,0.000,-35.645,-20.020,-19.043
1789992912.921458,0.000,-33.203,-12.207,-26.367
1789992912.925332,0.000,-26.367,-9.766,-26.855
1789992912.929206,0.000,-22.949,-7.812,-14.160
1789992912.933080,0.000,-30.762,-14.648,-25.879
1789992912.936954,0.000,-37.598,-21.973,-33.203
1789992912.940829,0.000,-32.715,-18.066,-30.762
1789992912.944703,0.000,-31.738,-16.113,-27.344
1789992912.949066,-14.160,-35.156,-16.602,-31.738
1789992912.952940,-47.363,-32.715,-18.555,-42.480
1789992912.956815,-45.410,-33.691,-22.949,-31.738
1789992912.960689,-7.812,-34.668,-17.578,-11.230
1789992912.964564,-1.953,-36.133,-15.625,-18.555
1789992912.968438,-35.645,-32.227,-22.461,-42.480
1789992912.972312,-51.758,-35.156,-28.320,-47.363
1789992912.976187,-36.621,-42.480,-29.785,-42.480
1789992912.980061,-18.066,-39.551,-29.785,-38.086
1789992912.983936,-38.574,-36.621,-28.809,-45.410
1789992912.987810,-55.664,-32.227,-30.762,-58.594
1789992912.991685,-31.250,-32.227,-36.621,-54.199
1789992912.996004,-17.090,-36.133,-38.086,-48.340
1789992912.999879,-54.688,-38.574,-41.504,-53.223
1789992913.003753,-79.590,-29.785,-39.062,-57.617
1789992913.007628,-73.242,-26.855,-34.180,-56.641
1789992913.011503,-41.016,-26.367,-32.715,-49.316
1789992913.015377,-33.203,-26.367,-35.645,-49.805
1789992913.019252,-53.223,-26.367,-34.668,-47.852
1789992913.023127,-64.941,-23.926,-29.785,-35.156
1789992913.027001,-41.992,-31.738,-28.809,-31.250
1789992913.030876,-21.973,-31.250,-30.273,-22.461
1789992913.034750,-61.523,-25.879,-34.180,-26.855
1789992913.038625,-75.684,-26.855,-31.738,-31.738
1789992913.042899,-48.340,-25.879,-26.855,-24.902
1789992913.046774,-18.066,-25.391,-29.785,-38.574
1789992913.050649,-39.551,-27.832,-36.621,-48.340
1789992913.054524,-69.824,-28.809,-35.156,-38.086
1789992913.058399,-47.852,-27.832,-26.855,-31.738
1789992913.062274,-14.648,-25.391,-19.043,-20.508
1789992913.066148,-35.156,-33.203,-24.414,-36.133
1789992913.070023,-75.684,-44.434,-36.133,-61.035
1789992913.073898,-65.918,-43.945,-36.621,-59.082
1789992913.077773,-31.738,-44.434,-32.715,-38.086
1789992913.081648,-28.809,-46.387,-34.180,-26.367
1789992913.085522,-62.500,-43.945,-40.039,-30.273
1789992913.089778,-70.801,-37.109,-35.645,-37.109
1789992913.093653,-47.852,-33.691,-29.785,-38.086
1789992913.097528,-31.250,-38.086,-36.133,-31.250
1789992913.101403,-64.941,-38.086,-35.645,-41.504
1789992913.105278,-81.055,-37.109,-34.668,-53.223
1789992913.109153,-53.223,-46.387,-40.527,-41.016
1789992913.113028,-29.785,-43.457,-38.086,-34.668
1789992913.116903,-53.711,-35.645,-38.574,-48.340
1789992913.120778,-78.613,-38.086,-40.039,-45.410
1789992913.124653,-48.828,-35.645,-34.668,-36.621
1789992913.128528,-9.766,-29.785,-33.691,-35.156
1789992913.132403,-28.320,-34.180,-35.645,-38.574
1789992913.136618,-62.500,-39.062,-35.156,-44.434
1789992913.140493,-57.129,-39.062,-33.203,-54.688
1789992913.144369,-27.344,-35.156,-34.180,-53.223
1789992913.148244,-19.531,-34.668,-40.039,-45.410
1789992913.152119,-55.664,-39.551,-41.504,-56.641
1789992913.155994,-69.824,-40.527,-38.086,-54.688
1789992913.159869,-39.062,-40.527,-39.551,-51.270
1789992913.163744,-17.578,-34.668,-40.527,-45.410
1789992913.167620,-38.086,-25.391,-39.062,-49.805
1789992913.171495,-56.641,-28.320,-41.504,-63.965
1789992913.175370,-44.434,-27.832,-38.574,-51.758
1789992913.179245,-1.465,-21.484,-33.203,-42.969
1789992913.183419,-20.020,-23.438,-32.227,-61.035
1789992913.187295,-57.617,-31.250,-37.598,-65.918
1789992913.191170,-36.621,-28.320,-36.133,-51.270
1789992913.195045,-2.441,-21.484,-29.297,-45.898
1789992913.198921,-11.719,-22.949,-29.785,-44.922
1789992913.202796,-36.621,-27.344,-32.715,-44.922
1789992913.206671,-33.691,-25.879,-32.227,-37.109
1789992913.210547,-10.254,-18.066,-25.391,-25.879
1789992913.214422,-1.465,-16.602,-17.090,-27.832
1789992913.218297,-36.621,-20.508,-20.508,-42.969
1789992913.222173,-53.223,-23.926,-21.973,-44.434
1789992913.226048,-19.531,-27.344,-19.043,-32.227
1789992913.230195,1.953,-25.879,-24.414,-20.996
1789992913.234071,-21.484,-20.508,-27.344,-34.180
1789992913.237946,-43.945,-24.902,-25.879,-50.293
1789992913.241822,-27.344,-32.227,-20.996,-28.320
1789992913.245697,8.301,-25.879,-18.066,-12.207
1789992913.249573,-8.789,-22.461,-13.672,-15.625
1789992913.253448,-46.387,-25.879,-15.625,-23.438
1789992913.257324,-47.363,-28.320,-24.902,-34.668
1789992913.261199,-20.020,-38.086,-25.879,-23.926
1789992913.265074,-17.090,-39.062,-26.367,-22.949
1789992913.268950,-47.852,-28.809,-20.996,-46.387
1789992913.272825,-61.035,-23.926,-13.672,-55.664
1789992913.277181,-21.973,-26.855,-13.184,-39.062
1789992913.281057,0.000,-23.926,-18.066,-21.484
1789992913.284933,-38.086,-18.555,-16.602,-34.180
1789992913.288808,-50.781,-23.926,-12.207,-36.133
1789992913.292684,-17.578,-26.367,-17.578,-30.273
1789992913.296560,6.348,-21.973,-20.508,-10.254
1789992913.300435,-25.879,-23.438,-18.555,-18.555
1789992913.304311,-60.547,-23.926,-19.531,-42.480
1789992913.308187,-37.109,-20.508,-22.461,-47.852
1789992913.312063,9.766,-12.207,-13.672,-32.715
1789992913.315938,-6.348,-7.812,-5.859,-26.367
1789992913.319814,-44.922,-9.277,-4.883,-28.809
1789992913.324131,-45.898,-11.230,-6.348,-35.156
1789992913.328007,-12.695,-17.090,-12.207,-31.250
1789992913.331883,-10.742,-20.996,-19.531,-28.809
1789992913.335758,-51.270,-19.531,-18.555,-46.875
1789992913.339634,-45.410,-22.461,-19.043,-53.223
1789992913.343510,-11.719,-21.484,-20.508,-41.504
1789992913.347386,5.371,-17.578,-16.602,-23.438
1789992913.351262,-20.508,-26.367,-17.578,-39.551
1789992913.355138,-37.598,-26.855,-16.602,-41.992
1789992913.359014,-14.160,-15.625,-7.324,-24.902
1789992913.362890,27.344,-6.348,2.930,-11.230
1789992913.366766,16.113,-4.883,-2.441,-15.625
1789992913.371056,-26.367,-9.766,-7.812,-19.043
1789992913.374933,-25.391,-15.137,-2.441,-12.695
1789992913.378808,23.926,-17.578,-1.953,-0.977
1789992913.382685,23.438,-18.555,-6.348,-6.836
1789992913.386561,-32.715,-19.043,-9.277,-31.738
1789992913.390437,-29.785,-16.113,-3.418,-25.879
1789992913.394313,9.277,-13.184,0.977,-20.020
1789992913.398189,18.066,-14.648,-3.906,-25.391
1789992913.402065,-18.066,-18.066,-13.672,-23.438
1789992913.405941,-32.227,-16.602,-16.602,-16.113
1789992913.409817,-1.465,-16.602,-8.789,-14.648
1789992913.413693,16.602,-17.578,-8.789,-14.648
1789992913.417983,-16.113,-17.578,-16.113,-16.602
1789992913.421859,-45.410,-22.949,-19.043,-38.086
1789992913.425735,-30.762,-29.297,-25.391,-48.340
1789992913.429612,2.930,-21.484,-26.367,-21.973
1789992913.433488,-8.789,-23.438,-26.367,-13.672
1789992913.437364,-41.504,-28.809,-24.902,-30.762
1789992913.441241,-32.227,-23.926,-18.555,-28.809
1789992913.445117,0.488,-25.391,-19.531,-17.090
1789992913.448993,-6.836,-26.855,-27.344,-19.531
1789992913.452869,-46.387,-24.902,-27.832,-28.809
1789992913.456746,-50.781,-24.902,-28.809,-35.645
1789992913.460622,-18.066,-24.902,-22.949,-23.438
1789992913.464864,0.000,-30.273,-20.020,-22.461
1789992913.468740,0.000,-31.738,-26.367,-47.363
1789992913.472617,0.000,-28.320,-21.973,-51.758
1789992913.476493,0.000,-31.738,-21.484,-36.621
1789992913.480370,0.000,-35.156,-29.297,-26.367
1789992913.484246,0.000,-33.203,-28.320,-41.992
1789992913.488122,0.000,-26.855,-26.367,-44.922
1789992913.491999,0.000,-24.414,-24.902,-23.926
1789992913.495875,0.000,-26.367,-23.438,-19.531
1789992913.499752,0.000,-28.320,-28.809,-41.016
1789992913.503628,0.000,-28.320,-29.785,-48.340
1789992913.507505,0.000,-32.715,-28.320,-46.387
1789992913.511706,-23.438,-32.227,-32.227,-40.527
1789992913.515582,-15.625,-27.832,-33.203,-27.832
1789992913.519459,-44.434,-24.902,-36.133,-36.133
1789992913.523335,-41.016,-23.926,-35.645,-48.828
1789992913.527212,-9.277,-21.973,-34.668,-35.156
1789992913.531089,-11.230,-24.902,-42.969,-41.016
1789992913.534966,-34.180,-27.344,-46.875,-56.641
1789992913.538842,-43.945,-25.391,-40.039,-50.781
1789992913.542719,-33.691,-28.809,-32.227,-53.711
1789992913.546595,-8.301,-29.297,-33.203,-43.945
1789992913.550472,-28.809,-28.809,-34.180,-43.457
1789992913.554348,-52.246,-31.250,-31.738,-56.641
1789992913.558508,-39.551,-33.691,-33.203,-51.270
1789992913.562385,-6.348,-33.691,-29.785,-20.996
1789992913.566262,-10.254,-32.715,-30.273,-12.207
1789992913.570138,-41.992,-31.738,-31.250,-36.621
1789992913.574015,-41.992,-25.391,-26.367,-43.457
1789992913.577892,-14.160,-23.438,-21.973,-29.297
1789992913.581769,-13.672,-28.320,-26.367,-24.414
1789992913.585645,-57.129,-33.203,-36.133,-48.340
1789992913.589522,-55.664,-35.156,-39.062,-63.477
1789992913.593399,-26.855,-39.062,-37.598,-56.152
1789992913.597276,-18.555,-38.086,-37.598,-53.711
1789992913.601152,-44.434,-37.109,-41.504,-68.848
1789992913.605328,0.000,-37.109,-46.875,-66.895
1789992913.609205,0.000,-36.621,-50.293,-55.176
1789992913.613082,0.000,-39.062,-47.852,-48.340
1789992913.616959,0.000,-37.109,-41.504,-54.688
1789992913.620836,0.000,-32.715,-35.156,-60.547
1789992913.624713,0.000,-31.738,-39.551,-54.199
1789992913.628590,0.000,-34.668,-43.945,-28.809
1789992913.632467,0.000,-39.551,-44.434,-18.066
1789992913.636343,0.000,-40.527,-37.598,-38.574
1789992913.640220,0.000,-40.039,-35.156,-50.293
1789992913.644097,0.000,-42.969,-37.598,-39.551
1789992913.647974,0.000,-43.945,-37.109,-44.922
1789992913.652362,-56.641,-41.504,-33.691,-46.387
1789992913.656239,-77.148,-42.480,-31.250,-48.340
1789992913.660116,-46.875,-42.969,-32.715,-41.504
1789992913.663993,-17.090,-41.504,-32.227,-29.785
1789992913.667870,-41.992,-48.340,-38.086,-47.363
1789992913.671747,-58.105,-48.828,-41.504,-43.945
1789992913.675624,-33.203,-45.410,-38.086,-32.715
1789992913.679502,0.488,-40.527,-33.691,-34.180
1789992913.683379,-15.625,-42.969,-38.574,-35.156
1789992913.687256,-46.875,-42.480,-41.016,-40.527
1789992913.691133,-40.527,-34.668,-34.668,-47.363
1789992913.695010,-3.906,-34.668,-33.691,-40.039
1789992913.699343,-2.930,-33.691,-38.574,-30.273
1789992913.703221,-41.992,-33.203,-38.574,-36.133
1789992913.707098,-52.246,-35.156,-36.133,-43.457
1789992913.710975,-19.043,-33.203,-37.598,-27.344
1789992913.714853,-5.371,-35.645,-36.621,-28.809
1789992913.718730,-29.785,-42.969,-40.039,-47.852
1789992913.722608,-47.852,-45.898,-44.922,-37.598
1789992913.726485,-37.598,-40.039,-36.133,-27.344
1789992913.730362,-7.812,-41.992,-35.645,-24.414
1789992913.734240,-23.926,-44.922,-37.109,-31.738
1789992913.738117,-50.781,-42.480,-29.297,-39.062
1789992913.741994,-39.551,-36.133,-27.344,-33.691
1789992913.746277,-16.113,-36.621,-26.367,-19.531
1789992913.750154,-24.414,-38.574,-28.809,-23.926
1789992913.754032,-59.082,-34.180,-27.344,-42.480
1789992913.757910,-55.664,-27.344,-22.461,-33.203
1789992913.761787,-13.672,-21.973,-22.949,-26.855
1789992913.765665,-18.066,-25.391,-23.438,-30.273
1789992913.769542,-65.918,-31.250,-26.855,-45.410
1789992913.773420,-73.730,-27.832,-30.273,-61.523
1789992913.777297,-29.785,-19.043,-28.809,-36.133
1789992913.781175,-13.672,-22.949,-27.344,-25.391
1789992913.785052,-56.152,-27.832,-28.320,-45.898
1789992913.788930,-66.895,-26.367,-30.762,-45.898
1789992913.793469,-36.621,-26.855,-28.809,-36.133
1789992913.797347,-8.789,-27.344,-25.391,-41.504
1789992913.801225,-26.855,-20.996,-23.926,-37.109
1789992913.805102,-49.316,-17.578,-27.344,-31.250
1789992913.808980,-38.574,-20.020,-26.367,-30.762
1789992913.812858,0.000,-13.184,-20.508,-20.508
1789992913.816736,-11.719,-14.160,-18.066,-22.949
1789992913.820614,-55.664,-20.508,-22.949,-27.832
1789992913.824492,-50.293,-17.578,-20.996,-16.113
1789992913.828369,-17.578,-18.555,-13.672,-16.113
1789992913.832247,-16.113,-27.344,-21.973,-19.043
1789992913.836125,-55.664,-30.273,-29.297,-16.113
1789992913.840342,-62.988,-23.926,-23.926,-28.320
1789992913.844219,-33.203,-25.391,-23.926,-38.574
1789992913.848098,-21.484,-25.391,-31.738,-31.738
1789992913.851975,-51.270,-22.949,-36.133,-40.527
1789992913.855854,-74.219,-23.438,-34.668,-41.016
1789992913.859731,-54.688,-24.414,-31.250,-29.297
1789992913.863610,-24.414,-23.926,-25.391,-16.602
1789992913.867487,-45.410,-24.414,-23.926,-17.090
1789992913.871365,-73.730,-22.949,-29.297,-38.086
1789992913.875243,-58.105,-21.973,-27.344,-37.109
1789992913.879121,-19.531,-22.461,-18.555,-19.043
1789992913.882999,-20.508,-19.043,-18.555,-9.766
1789992913.887189,-52.734,-16.602,-20.996,-22.461
1789992913.891067,-49.316,-19.531,-18.066,-38.574
1789992913.894945,-19.043,-18.066,-15.625,-28.320
1789992913.898823,-6.836,-14.160,-20.020,-24.902
1789992913.902701,-40.527,-14.648,-20.996,-24.902
1789992913.906579,-57.617,-12.695,-18.555,-21.973
1789992913.910458,-26.855,-10.742,-20.020,-16.602
1789992913.914336,1.953,-13.184,-21.973,4.395
1789992913.918214,-21.973,-14.160,-20.020,-15.137
1789992913.922092,-50.781,-17.578,-25.879,-33.203
1789992913.925970,-31.738,-16.602,-25.879,-24.902
1789992913.929848,1.465,-14.160,-19.043,-17.578
1789992913.934015,-14.648,-20.508,-17.578,-24.414
1789992913.937893,-58.105,-26.855,-21.484,-35.156
1789992913.941771,-57.129,-26.367,-25.391,-24.414
1789992913.945650,-26.367,-29.297,-22.949,-15.625
1789992913.949528,-30.273,-33.203,-21.484,-9.766
1789992913.953406,-62.500,-29.785,-24.414,-18.066
1789992913.957284,-63.965,-20.996,-28.320,-31.250
1789992913.961163,-29.785,-20.996,-22.461,-32.715
1789992913.965041,-16.113,-20.996,-20.508,-31.738
1789992913.968919,-43.457,-17.578,-20.020,-38.574
1789992913.972797,-60.547,-16.113,-20.020,-40.527
1789992913.976676,-40.527,-19.531,-25.391,-32.227
1789992913.980837,-15.625,-20.996,-31.250,-30.273
1789992913.984715,-33.691,-20.508,-38.086,-44.434
1789992913.988593,-60.059,-21.484,-39.062,-46.387
1789992913.992472,-41.504,-13.184,-32.227,-39.551
1789992913.996350,-8.301,-14.648,-31.250,-31.738
1789992914.000228,-17.090,-23.438,-36.133,-30.762
1789992914.004107,-46.875,-21.973,-30.762,-36.133
1789992914.007985,-49.316,-18.555,-23.926,-32.227
1789992914.011864,-21.484,-20.996,-23.438,-21.484
1789992914.015742,-13.672,-19.531,-28.320,-18.555
1789992914.019620,-57.129,-19.043,-29.297,-31.738
1789992914.023499,-73.242,-21.973,-33.203,-33.691
1789992914.027823,-40.039,-19.531,-33.691,-22.949
1789992914.031702,-18.555,-16.113,-28.320,-21.973
1789992914.035580,-52.734,-19.043,-27.344,-31.738
1789992914.039459,-79.590,-20.508,-27.832,-31.738
1789992914.043337,-48.340,-21.484,-24.902,-27.832
1789992914.047216,-12.207,-23.926,-24.414,-31.738
1789992914.051095,-47.852,-23.926,-23.926,-41.992
1789992914.054973,-83.984,-22.949,-25.391,-53.711
1789992914.058852,-57.617,-24.902,-40.527,-52.734
1789992914.062730,-31.250,-26.367,-47.363,-45.410
1789992914.066609,-39.551,-30.273,-39.062,-40.039
1789992914.070487,-64.453,-32.227,-36.133,-44.434
1789992914.074789,-57.129,-31.250,-38.574,-53.223
1789992914.078668,-17.578,-33.691,-38.574,-41.992
1789992914.082546,-9.766,-30.762,-30.273,-28.320
1789992914.086425,-41.504,-30.762,-31.250,-41.504
1789992914.090304,-50.781,-31.250,-41.992,-51.270
1789992914.094182,-19.531,-23.926,-38.086,-41.016
1789992914.098061,2.441,-20.508,-36.133,-26.367
1789992914.101940,-26.367,-21.973,-38.086,-27.832
1789992914.105819,-50.781,-21.484,-33.203,-24.902
1789992914.109698,-29.297,-27.832,-37.109,-17.578
1789992914.113576,-0.977,-33.691,-37.598,-8.789
1789992914.117455,-32.715,-35.156,-39.551,-35.645
1789992914.121749,-60.547,-33.203,-38.086,-52.734
1789992914.125628,-40.039,-35.156,-38.086,-30.762
1789992914.129507,-11.230,-40.039,-41.504,-29.297
1789992914.133386,-20.996,-39.551,-36.133,-38.086
1789992914.137264,-52.734,-41.016,-36.133,-39.551
1789992914.141144,-62.500,-44.434,-39.062,-36.621
1789992914.145022,-32.227,-41.016,-34.180,-23.438
1789992914.148901,-20.996,-36.621,-29.297,-17.578
1789992914.152780,-57.617,-33.691,-26.855,-22.949
1789992914.156659,-64.453,-29.785,-21.973,-24.902
1789992914.160538,-27.344,-32.227,-17.578,-4.395
1789992914.164417,-2.930,-31.250,-19.531,-9.277
1789992914.168645,-37.109,-29.785,-23.438,-39.551
1789992914.172524,-66.895,-30.762,-20.508,-41.992
1789992914.176403,-53.223,-31.738,-19.043,-48.828
1789992914.180282,-23.926,-39.062,-25.879,-50.293
1789992914.184161,-34.180,-39.551,-27.344,-51.270
1789992914.188040,-77.148,-39.551,-28.809,-43.457
1789992914.191919,-70.312,-45.410,-34.668,-45.410
1789992914.195798,-18.066,-42.969,-33.691,-35.156
1789992914.199677,-14.648,-40.527,-29.297,-17.578
1789992914.203557,-38.086,-39.062,-29.785,-23.438
1789992914.207436,-43.457,-38.574,-29.785,-26.367
1789992914.211315,-10.254,-38.086,-26.367,-21.484
1789992914.215526,14.648,-31.250,-28.320,-18.066
1789992914.219406,-15.625,-26.367,-32.227,-33.691
1789992914.223285,-30.762,-24.414,-31.738,-26.855
1789992914.227164,-2.930,-21.973,-27.344,-13.184
1789992914.231043,20.508,-26.855,-30.273,-21.973
1789992914.234923,0.977,-28.809,-28.809,-16.602
1789992914.238802,-22.949,-28.809,-25.391,-12.695
1789992914.242681,-12.207,-32.227,-25.879,4.883
1789992914.246560,17.090,-21.973,-18.555,12.695
1789992914.250439,-2.930,-13.184,-24.414,-20.508
1789992914.254319,-27.344,-15.137,-32.227,-25.879
1789992914.258198,-20.020,-17.578,-25.391,-16.602
1789992914.262365,4.883,-18.066,-20.996,-15.625
1789992914.266244,11.230,-20.996,-23.926,-15.137
1789992914.270123,-18.066,-19.531,-21.973,-24.414
1789992914.274003,-20.996,-16.602,-20.020,-31.738
1789992914.277882,2.441,-19.043,-23.438,-28.809
1789992914.281761,15.625,-17.090,-24.414,-31.250
1789992914.285641,1.465,-14.648,-17.090,-29.785
1789992914.289520,-20.508,-12.207,-14.648,-22.461
1789992914.293399,-9.277,-12.695,-23.438,-26.367
1789992914.297279,25.879,-15.137,-32.227,-27.832
1789992914.301158,11.230,-14.648,-34.668,-31.738
1789992914.305037,-23.438,-18.555,-29.785,-38.086
1789992914.309240,-16.113,-22.949,-33.691,-48.828
1789992914.313120,21.973,-14.648,-34.180,-37.598
1789992914.316999,16.602,-10.742,-31.250,-38.086
1789992914.320879,-29.297,-17.578,-33.203,-51.758
1789992914.324758,-23.438,-18.555,-30.273,-43.945
1789992914.328638,16.113,-15.137,-28.809,-27.832
1789992914.332517,14.160,-17.578,-29.297,-17.090
1789992914.336396,-23.438,-22.949,-27.344,-23.438
1789992914.340276,-31.738,-23.926,-23.438,-22.461
1789992914.344156,-15.137,-29.297,-26.855,-21.973
1789992914.348035,0.000,-28.320,-23.926,-20.996
1789992914.351914,-30.273,-26.855,-21.973,-15.137
1789992914.356031,-53.711,-29.785,-26.367,-36.621
1789992914.359911,-27.344,-34.180,-28.320,-57.617
1789992914.363791,-0.977,-36.133,-32.227,-40.527
1789992914.367670,-13.184,-36.133,-32.227,-29.297
1789992914.371550,-40.039,-35.156,-30.273,-49.805
1789992914.375429,-42.480,-38.086,-34.180,-57.617
1789992914.379309,-14.160,-43.457,-31.250,-40.527
1789992914.383189,-6.836,-37.109,-26.367,-42.969
1789992914.387068,-22.949,-30.273,-30.762,-48.828
1789992914.390948,-24.414,-27.832,-25.391,-41.504
1789992914.394827,0.977,-30.762,-20.508,-33.203
1789992914.398707,25.391,-32.715,-25.391,-29.297
1789992914.402799,-7.324,-31.250,-28.809,-35.156
1789992914.406679,-24.902,-32.227,-31.738,-52.734
1789992914.410559,0.488,-31.250,-31.250,-44.434
1789992914.414438,16.602,-34.180,-32.227,-30.762
1789992914.418318,-15.137,-41.504,-33.691,-39.062
1789992914.422198,-39.551,-41.504,-29.785,-36.133
1789992914.426078,-32.715,-40.527,-27.344,-40.039
1789992914.429957,-15.625,-45.410,-30.762,-44.922
1789992914.433837,-24.414,-42.969,-29.785,-40.039
1789992914.437717,-55.176,-38.086,-30.273,-47.363
1789992914.441596,-54.199,-40.039,-37.598,-46.387
1789992914.445476,-7.324,-37.598,-35.645,-26.855
1789992914.449781,1.953,-32.227,-32.715,-31.738
1789992914.453661,-44.434,-38.086,-39.062,-58.594
1789992914.457541,-53.711,-43.457,-42.969,-51.270
1789992914.461421,-20.020,-41.504,-38.086,-32.227
1789992914.465301,-3.418,-37.598,-43.457,-30.273
1789992914.469181,-48.828,-35.645,-49.805,-51.270
1789992914.473060,-58.594,-32.227,-44.922,-68.848
1789992914.476940,-27.832,-31.738,-41.992,-55.664
1789992914.480820,-0.488,-31.250,-33.691,-38.574
1789992914.484700,-20.020,-29.297,-28.320,-43.945
1789992914.488580,-47.363,-33.691,-33.203,-63.477
1789992914.492460,-26.855,-30.762,-35.156,-55.176
1789992914.496785,8.301,-30.762,-32.227,-34.668
1789992914.500665,-7.324,-37.598,-36.133,-42.969
1789992914.504545,-45.898,-39.062,-36.621,-51.270
1789992914.508425,-33.691,-36.621,-38.086,-54.199
1789992914.512305,12.207,-33.203,-36.133,-40.527
1789992914.516185,18.555,-28.320,-34.180,-37.109
1789992914.520065,-24.414,-30.273,-34.180,-50.293
1789992914.523945,-37.598,-37.109,-35.156,-46.875
1789992914.527825,-4.883,-35.156,-34.668,-33.691
1789992914.531705,29.785,-24.414,-27.832,-15.625
1789992914.535585,-2.441,-26.367,-28.320,-22.461
1789992914.539465,-21.973,-31.250,-27.344,-36.621
1789992914.543760,8.789,-29.785,-28.809,-27.344
1789992914.547641,27.344,-30.762,-29.297,-17.578
1789992914.551521,0.488,-32.227,-27.344,-29.785
1789992914.555401,-26.855,-29.297,-28.809,-36.133
1789992914.559281,-16.602,-24.902,-26.855,-34.180
1789992914.563161,12.695,-25.879,-24.902,-20.996
1789992914.567042,3.418,-21.973,-26.855,-21.973
1789992914.570922,-30.273,-22.461,-29.297,-28.809
1789992914.574802,-35.645,-26.367,-26.855,-23.926
1789992914.578682,-3.418,-23.926,-23.926,-13.184
1789992914.582562,20.996,-23.438,-28.809,-15.137
1789992914.586443,-10.742,-25.879,-27.344,-30.273
1789992914.590622,-29.297,-21.484,-15.137,-26.855
1789992914.594502,-1.465,-17.090,-11.719,-15.137
1789992914.598382,20.508,-21.484,-13.184,-14.648
1789992914.602263,-11.230,-26.367,-9.766,-31.738
1789992914.606143,-31.738,-24.414,-14.160,-36.133
1789992914.610023,-15.137,-23.438,-17.090,-29.785
1789992914.613904,7.324,-28.320,-20.508,-23.926
1789992914.617784,-9.277,-30.273,-24.414,-24.414
1789992914.621665,-40.527,-35.645,-24.414,-30.762
1789992914.625545,-23.438,-38.574,-21.973,-29.297
1789992914.629425,1.465,-34.668,-19.531,-27.344
