timestamp,TP9,AF7,AF8,TP10
1789913200.545725,0.000,0.000,-0.488,0.000
1789913200.549584,-0.488,0.000,-0.488,0.000
1789913200.553444,0.000,-0.977,1.953,-3.906
1789913200.557304,0.977,0.977,-5.859,7.812
1789913200.561163,-4.883,-5.859,23.926,-45.898
1789913200.565023,20.996,-16.113,45.410,-108.887
1789913200.568882,36.133,-12.207,26.855,-99.121
1789913200.572742,-10.742,-8.301,35.156,-104.980
1789913200.576602,-15.137,-9.766,32.227,-102.051
1789913200.580461,24.902,-13.184,26.855,-100.098
1789913200.584321,41.992,-12.695,25.879,-95.215
1789913200.588180,0.000,-14.160,24.414,-104.980
1789913200.590904,-20.020,-16.602,26.367,-106.934
1789913200.594670,13.184,-11.719,25.391,-82.031
1789913200.598434,54.688,-13.184,26.855,-60.059
1789913200.602200,28.809,-20.508,28.320,-63.477
1789913200.605964,-26.367,-29.297,23.438,-78.125
1789913200.609730,-8.789,-31.250,20.996,-67.871
1789913200.613494,40.039,-21.973,26.367,-51.758
1789913200.617260,48.828,-17.578,29.297,-56.641
1789913200.621024,0.488,-19.043,23.926,-86.914
1789913200.624789,-1.465,-19.043,23.438,-94.727
1789913200.628554,39.062,-17.578,25.879,-77.148
1789913200.632319,55.176,-5.371,32.715,-82.031
1789913200.633310,18.066,13.672,40.527,-111.816
1789913200.636959,11.230,21.973,42.969,-119.629
1789913200.640609,47.852,8.789,38.574,-114.258
1789913200.644258,72.266,-3.906,42.969,-103.027
1789913200.647907,40.527,-8.789,45.898,-117.676
1789913200.651557,9.766,-13.672,33.691,-142.578
1789913200.655206,28.809,0.488,26.367,-130.859
1789913200.658855,48.340,0.977,26.367,-113.281
1789913200.662505,18.066,-16.113,21.484,-123.047
1789913200.666154,-17.090,-7.812,28.320,-135.742
1789913200.669804,1.953,2.441,40.527,-121.094
1789913200.673453,44.922,0.000,38.086,-119.629
1789913200.673183,0.000,4.395,30.273,-120.605
1789913200.676723,0.000,10.254,43.945,-128.418
1789913200.680264,0.000,19.531,62.988,-118.164
1789913200.683804,0.000,11.230,45.410,-106.934
1789913200.687345,0.000,-8.301,27.344,-111.328
1789913200.690885,0.000,-1.465,38.574,-119.141
1789913200.694426,0.000,-5.859,40.527,-121.582
1789913200.697966,0.000,7.812,29.297,-104.492
1789913200.701507,0.000,12.695,33.691,-101.562
1789913200.705047,0.000,-9.766,39.551,-125.977
1789913200.708588,0.000,-1.465,38.086,-134.277
1789913200.712128,0.000,12.207,42.480,-116.211
1789913200.712235,45.898,2.930,47.363,-104.980
1789913200.715704,30.762,-7.812,47.363,-115.723
1789913200.719173,-18.066,-10.254,38.574,-149.414
1789913200.722642,-6.836,-2.441,38.574,-143.555
1789913200.726111,47.363,5.371,42.969,-117.188
1789913200.729580,49.316,-6.836,37.598,-113.770
1789913200.733049,0.977,3.418,50.293,-125.000
1789913200.736518,-0.977,4.883,56.152,-126.465
1789913200.739987,37.109,0.488,41.016,-104.004
1789913200.743456,58.594,4.883,37.598,-80.566
1789913200.746925,11.230,5.859,47.363,-102.539
1789913200.750394,-15.625,13.672,53.223,-116.699
1789913200.753075,19.043,10.254,54.688,-104.980
1789913200.756531,38.574,3.418,42.969,-107.910
1789913200.759987,-2.930,-7.812,23.926,-129.395
1789913200.763443,-52.246,-33.203,13.672,-157.227
1789913200.766899,-27.832,-38.086,20.508,-148.926
1789913200.770355,10.742,-25.879,24.902,-118.652
1789913200.773810,-3.906,-16.113,14.648,-116.211
1789913200.777266,-41.016,-18.555,10.254,-131.348
1789913200.780722,-26.367,-11.230,14.160,-129.883
1789913200.784178,14.648,2.930,19.043,-95.703
1789913200.787634,26.367,4.395,18.555,-70.312
1789913200.791090,-7.812,1.953,21.484,-93.262
1789913200.794266,-4.883,6.348,22.461,-96.191
1789913200.797718,26.367,4.883,19.043,-83.984
1789913200.801170,41.016,8.301,21.973,-69.336
1789913200.804622,5.859,13.184,25.391,-81.543
1789913200.808074,-8.789,16.113,26.855,-83.984
1789913200.811526,29.297,24.902,34.668,-57.617
1789913200.814978,55.664,32.715,37.109,-49.316
1789913200.818430,45.898,39.062,41.504,-61.523
1789913200.821882,13.672,43.945,46.387,-73.242
1789913200.825334,22.949,41.992,43.457,-68.848
1789913200.828786,57.129,40.039,38.086,-68.848
1789913200.832238,52.246,32.227,34.668,-76.660
1789913200.836104,0.000,27.832,35.645,-88.379
1789913200.839561,0.000,38.574,37.598,-79.102
1789913200.843018,0.000,41.016,37.109,-69.824
1789913200.846475,0.000,40.527,38.574,-64.453
1789913200.849932,0.000,52.246,46.875,-79.102
1789913200.853389,0.000,60.059,49.805,-81.055
1789913200.856846,0.000,61.035,48.340,-57.129
1789913200.860303,0.000,67.871,52.734,-28.809
1789913200.863760,0.000,74.707,54.688,-27.344
1789913200.867216,0.000,73.730,57.617,-46.387
1789913200.870673,0.000,98.145,71.289,-29.785
1789913200.874130,0.000,104.980,84.473,1.953
1789913200.878333,100.098,89.844,90.820,-4.883
1789913200.881797,61.523,96.680,92.773,-30.762
1789913200.885262,60.547,97.168,92.285,-26.367
1789913200.888726,92.285,96.680,96.191,-15.137
1789913200.892191,97.656,99.121,81.543,-12.695
1789913200.895656,49.805,95.703,71.777,-31.250
1789913200.899121,47.852,88.867,71.777,-34.668
1789913200.902585,84.961,91.797,70.801,-16.602
1789913200.906050,97.168,93.750,68.848,-5.371
1789913200.909514,50.293,105.469,82.520,-25.391
1789913200.912979,20.996,90.820,87.891,-41.992
1789913200.916444,48.828,71.289,54.688,-40.039
1789913200.920960,81.543,80.078,43.945,-29.785
1789913200.924435,48.340,77.148,47.852,-46.875
1789913200.927909,9.277,73.730,47.852,-63.477
1789913200.931384,31.250,71.289,50.293,-53.223
1789913200.934858,65.918,74.707,53.711,-41.504
1789913200.938333,62.012,82.031,59.570,-43.945
1789913200.941807,10.742,61.523,54.688,-69.336
1789913200.945281,18.555,51.270,63.965,-51.758
1789913200.948756,59.570,57.129,60.059,-29.785
1789913200.952230,63.965,67.871,42.969,-44.922
1789913200.955704,22.461,77.148,46.875,-60.059
1789913200.959179,17.090,69.824,60.547,-57.129
1789913200.964059,54.688,80.078,69.336,-44.434
1789913200.967545,85.449,82.031,71.289,-32.715
1789913200.971031,48.340,69.824,75.195,-44.922
1789913200.974517,7.324,70.801,61.523,-54.199
1789913200.978003,32.715,77.637,57.617,-36.133
1789913200.981489,63.965,77.637,65.918,-32.715
1789913200.984976,37.109,60.059,55.176,-55.176
1789913200.988462,-9.766,63.965,36.621,-73.730
1789913200.991948,10.742,61.523,37.109,-79.590
1789913200.995434,47.852,48.340,47.363,-71.777
1789913200.998920,41.016,54.199,43.457,-65.430
1789913201.002406,0.488,52.734,42.969,-89.355
1789913201.007245,13.672,53.711,49.805,-93.750
1789913201.010741,53.711,60.059,49.805,-62.988
1789913201.014237,63.477,61.035,56.641,-49.805
1789913201.017734,17.578,61.035,65.918,-69.824
1789913201.021230,0.488,59.082,56.152,-74.219
1789913201.024726,25.391,37.598,41.504,-66.406
1789913201.028223,32.227,11.230,26.367,-68.359
1789913201.031719,-55.176,-26.855,-18.066,-128.418
1789913201.035216,-124.023,-59.570,-54.688,-189.941
1789913201.038712,-95.703,-67.383,-62.500,-184.082
1789913201.042208,-71.289,-69.824,-58.105,-166.016
1789913201.045705,-85.449,-62.988,-50.293,-166.016
1789913201.050763,-119.629,-59.082,-46.875,-185.059
1789913201.054270,-99.121,-44.922,-44.922,-182.129
1789913201.057777,-55.664,-40.039,-38.086,-152.344
1789913201.061284,-58.105,-50.781,-32.715,-143.555
1789913201.064791,-95.703,-36.621,-33.691,-164.551
1789913201.068299,-80.078,-25.391,-24.414,-157.715
1789913201.071806,-34.668,-20.508,-16.113,-125.977
1789913201.075313,-5.859,-4.883,-14.160,-107.910
1789913201.078820,-36.133,5.371,-11.230,-128.418
1789913201.082327,-46.387,-0.488,-9.766,-143.555
1789913201.085835,-13.672,2.441,6.348,-117.676
1789913201.089342,-4.395,3.418,-1.465,-101.074
1789913201.096216,0.000,-2.441,-19.043,-113.281
1789913201.099745,0.000,6.836,-11.719,-115.723
1789913201.103274,0.000,15.137,-4.883,-101.074
1789913201.106802,0.000,14.160,-2.441,-88.867
1789913201.110331,0.000,26.367,2.441,-90.820
1789913201.113860,0.000,18.555,2.441,-97.656
1789913201.117389,0.000,8.301,-3.906,-87.891
1789913201.120918,0.000,20.020,-0.977,-67.871
1789913201.124446,0.000,18.555,-3.418,-65.430
1789913201.127975,0.000,13.184,-11.719,-97.168
1789913201.131504,0.000,20.508,-12.207,-88.379
1789913201.135033,0.000,17.578,0.000,-67.383
1789913201.141643,-4.883,16.602,-3.906,-82.031
1789913201.145190,-45.410,21.973,-12.695,-98.633
1789913201.148737,-59.082,9.766,-5.859,-87.891
1789913201.152285,-25.391,10.254,0.977,-77.148
1789913201.155832,7.324,17.578,5.371,-75.195
1789913201.159379,-17.090,22.949,12.207,-83.496
1789913201.162926,-59.082,24.902,11.230,-108.887
1789913201.166473,-46.875,17.578,-3.906,-115.234
1789913201.170020,-5.859,20.020,-1.465,-97.168
1789913201.173567,-5.859,29.297,7.812,-88.379
1789913201.177114,-54.688,24.902,-0.488,-117.676
1789913201.180662,-45.410,11.719,-6.836,-116.211
1789913201.187283,0.000,18.066,-5.371,-87.891
1789913201.190848,0.000,14.160,-2.930,-86.914
1789913201.194412,0.000,6.836,-2.930,-111.328
1789913201.197976,0.000,16.113,-5.371,-106.445
1789913201.201540,0.000,18.555,-6.348,-95.703
1789913201.205104,0.000,20.020,1.465,-83.496
1789913201.208669,0.000,19.043,-6.348,-87.402
1789913201.212233,0.000,12.695,-14.160,-110.840
1789913201.215797,0.000,14.648,-12.207,-94.727
1789913201.219361,0.000,21.484,-15.137,-77.148
1789913201.222925,0.000,24.902,-9.277,-94.727
1789913201.226490,0.000,23.438,-0.977,-110.352
1789913201.232864,-17.090,23.438,0.000,-104.004
1789913201.236442,23.926,27.344,0.000,-86.426
1789913201.240021,12.207,29.785,0.000,-78.613
1789913201.243600,-34.180,29.785,0.000,-110.840
1789913201.247179,-29.297,23.438,0.000,-119.629
1789913201.250758,3.418,17.090,0.000,-93.262
1789913201.254337,16.113,16.602,0.000,-86.426
1789913201.257915,-36.621,10.742,0.000,-108.398
1789913201.261494,-62.012,6.836,0.000,-123.047
1789913201.265073,-19.043,16.602,0.000,-116.211
1789913201.268652,9.766,22.949,0.000,-110.840
1789913201.272231,-19.531,18.066,0.000,-139.160
1789913201.278469,0.000,14.160,-25.879,-156.250
1789913201.282060,0.000,28.320,-26.855,-137.695
1789913201.285652,0.000,43.945,-23.438,-109.863
1789913201.289244,0.000,39.062,-23.926,-114.258
1789913201.292836,0.000,35.156,-32.227,-138.672
1789913201.296428,0.000,30.762,-35.156,-126.953
1789913201.300020,0.000,29.785,-34.180,-114.258
1789913201.303612,0.000,33.203,-22.461,-99.609
1789913201.307204,0.000,34.668,-22.949,-108.887
1789913201.310796,0.000,34.668,-20.996,-110.840
1789913201.314387,0.000,30.762,-15.137,-94.238
1789913201.317979,0.000,35.645,-16.602,-94.238
1789913201.320905,-48.828,40.039,-15.137,0.000
1789913201.324494,-29.785,39.551,-18.555,0.000
1789913201.328082,3.418,34.180,-21.484,0.000
1789913201.331671,0.000,32.715,-22.461,0.000
1789913201.335260,-39.551,32.227,-17.578,0.000
1789913201.338849,-44.922,25.391,-21.973,0.000
1789913201.342438,-12.207,28.809,-28.320,0.000
1789913201.346026,4.395,31.250,-29.297,0.000
1789913201.349615,-46.387,28.809,-33.691,0.000
1789913201.353204,-50.293,30.762,-32.715,0.000
1789913201.356793,-9.277,27.344,-28.809,0.000
1789913201.360382,6.348,27.344,-27.832,0.000
1789913201.364167,-28.809,34.180,-23.926,-72.754
1789913201.367757,-53.223,35.156,-19.043,-90.820
1789913201.371347,-30.273,39.551,-19.043,-91.797
1789913201.374937,3.906,39.062,-18.555,-73.242
1789913201.378526,-21.973,31.738,-17.578,-61.035
1789913201.382116,-74.219,32.227,-21.973,-70.801
1789913201.385705,-51.758,33.203,-26.367,-78.125
1789913201.389295,-8.789,35.645,-23.438,-67.383
1789913201.392885,-20.508,40.039,-20.020,-55.176
1789913201.396474,-56.641,41.504,-13.672,-53.711
1789913201.400064,-45.410,36.621,-12.207,-71.777
1789913201.403654,-17.578,38.086,-20.020,-77.637
1789913201.409815,11.719,41.992,-20.996,-69.824
1789913201.413415,8.301,41.504,-18.066,-71.289
1789913201.417016,-33.203,47.363,-14.160,-86.914
1789913201.420616,-32.715,45.410,-14.160,-84.961
1789913201.424216,-8.301,41.504,-21.484,-80.078
1789913201.427817,1.465,39.551,-24.902,-79.102
1789913201.431417,-45.410,35.156,-27.344,-92.773
1789913201.435018,-61.035,35.645,-30.762,-94.238
1789913201.438618,-21.484,35.156,-28.809,-79.102
1789913201.442218,1.953,35.645,-21.484,-62.500
1789913201.445819,-26.855,37.598,-18.066,-62.012
1789913201.449419,-62.012,36.133,-18.555,-73.242
1789913201.456957,-47.852,28.809,-18.066,-62.988
1789913201.460573,-7.324,29.785,-11.719,-26.855
1789913201.464189,-13.672,39.551,-10.742,-27.832
1789913201.467805,-63.965,38.086,-19.531,-62.988
1789913201.471421,-55.664,31.738,-11.719,-61.523
1789913201.475037,-14.160,27.344,-5.371,-36.133
1789913201.478653,-17.090,32.227,-8.301,-30.273
1789913201.482269,-57.617,34.668,-6.348,-57.617
1789913201.485885,-53.711,29.785,-7.324,-70.801
1789913201.489501,-23.926,31.250,-9.766,-49.805
1789913201.493117,-3.418,36.621,-10.742,-38.574
1789913201.496733,-37.598,35.645,-8.789,-64.453
1789913201.503809,-57.617,26.367,-11.719,-72.266
1789913201.507438,-28.320,22.461,-19.043,-62.012
1789913201.511067,-5.371,22.461,-20.020,-55.176
1789913201.514696,-40.039,14.648,-18.066,-68.359
1789913201.518325,-68.359,14.160,-18.555,-79.102
1789913201.521954,-30.762,20.996,-14.648,-61.035
1789913201.525583,2.930,24.414,-7.812,-38.574
1789913201.529212,-24.414,23.926,-14.160,-47.852
1789913201.532841,-73.730,20.020,-11.719,-71.289
1789913201.536471,-62.012,22.461,-7.324,-62.500
1789913201.540100,-19.531,26.855,-18.555,-60.059
1789913201.543729,-13.184,22.461,-23.438,-53.711
1789913201.550558,-62.500,19.043,-16.602,-65.430
1789913201.554199,-66.895,21.973,-9.277,-67.871
1789913201.557839,-39.551,18.066,-15.137,-58.105
1789913201.561480,-18.555,15.137,-18.066,-70.312
1789913201.565120,-57.617,13.672,-20.020,-96.191
1789913201.568761,-96.680,9.277,-20.996,-105.469
1789913201.572402,-62.988,14.648,-20.020,-99.121
1789913201.576043,-24.414,18.555,-22.461,-91.797
1789913201.579683,-44.434,7.812,-23.438,-95.215
1789913201.583324,-84.961,7.324,-24.414,-122.559
1789913201.586965,-67.383,15.625,-22.949,-127.930
1789913201.590605,-25.879,16.113,-18.066,-114.746
1789913201.597816,-28.809,15.625,-14.648,-112.793
1789913201.601469,-61.035,27.344,-12.695,-118.164
1789913201.605122,-48.340,36.133,-9.277,-107.422
1789913201.608775,-8.789,35.156,-5.371,-94.727
1789913201.612428,2.930,28.320,-9.766,-92.285
1789913201.616081,-39.062,26.367,-10.742,-104.004
1789913201.619734,-51.758,31.738,-9.277,-109.863
1789913201.623387,-23.926,32.715,-13.672,-95.703
1789913201.627040,3.418,34.180,-12.695,-73.242
1789913201.630693,-20.996,38.574,-3.418,-85.938
1789913201.634346,-43.457,36.621,3.418,-98.145
1789913201.638000,-7.324,28.320,4.883,-83.496
1789913201.644387,0.000,25.391,0.977,-66.895
1789913201.648049,0.000,23.926,-1.465,-75.684
1789913201.651711,0.000,21.484,2.441,-102.539
1789913201.655374,0.000,21.484,3.906,-100.098
1789913201.659036,0.000,21.484,0.000,-84.473
1789913201.662698,0.000,17.090,-5.859,-83.008
1789913201.666360,0.000,14.160,-4.395,-114.746
1789913201.670022,0.000,13.184,-2.441,-113.281
1789913201.673685,0.000,14.648,-5.859,-86.914
1789913201.677347,0.000,18.555,-7.324,-80.566
1789913201.681009,0.000,23.438,-4.395,-101.562
1789913201.684671,0.000,26.367,-0.977,-112.305
1789913201.690832,-31.250,21.973,-2.930,-92.773
1789913201.694503,-7.324,19.531,-11.719,-86.426
1789913201.698173,-36.133,15.625,-16.113,-102.051
1789913201.701843,-71.289,13.672,-17.090,-109.863
1789913201.705513,-50.781,17.090,-16.602,-92.773
1789913201.709183,-11.719,18.066,-14.648,-77.148
1789913201.712854,-19.531,19.531,-14.648,-76.172
1789913201.716524,-58.594,18.066,-15.137,-87.402
1789913201.720194,-48.828,21.973,-14.648,-84.961
1789913201.723864,-10.254,27.832,-12.695,-70.801
1789913201.727535,-14.160,22.949,-18.555,-70.312
1789913201.731205,-74.707,14.648,-26.855,-95.215
1789913201.737142,-78.125,14.648,-20.996,-96.680
1789913201.740819,-48.828,11.719,-22.461,-80.566
1789913201.744497,-41.992,0.977,-36.133,-76.172
1789913201.748174,-86.426,-12.207,-43.945,-102.051
1789913201.751851,-120.117,-16.602,-47.852,-114.746
1789913201.755528,-90.820,-16.113,-50.293,-108.887
1789913201.759205,-56.152,-18.066,-50.781,-98.633
1789913201.762882,-67.383,-10.254,-47.852,-104.492
1789913201.766560,-102.051,-6.836,-47.852,-129.883
1789913201.770237,-84.961,-13.184,-47.363,-116.699
1789913201.773914,-44.434,-15.625,-44.434,-89.355
1789913201.777591,-55.664,-15.137,-44.434,-97.656
1789913201.783540,-98.633,-21.484,-39.551,-124.023
1789913201.787224,-77.637,-18.555,-34.668,-112.793
1789913201.790908,-32.715,-6.836,-29.297,-96.191
1789913201.794592,-18.066,-2.441,-27.344,-94.727
1789913201.798276,-61.035,-3.418,-30.273,-111.328
1789913201.801960,-70.312,-2.930,-28.809,-118.652
1789913201.805644,-31.250,6.348,-25.879,-104.004
1789913201.809328,-0.977,16.113,-26.367,-93.262
1789913201.813012,-29.785,15.137,-21.484,-102.051
1789913201.816696,-72.754,7.812,-21.484,-119.629
1789913201.820380,-42.480,8.789,-21.484,-109.863
1789913201.824064,1.465,17.090,-15.137,-103.027
1789913201.830780,-8.301,20.508,-14.648,-110.352
1789913201.834473,-46.387,23.926,-9.277,-124.023
1789913201.838166,-46.387,24.414,-9.766,-123.535
1789913201.841858,-12.207,20.996,-17.090,-101.562
1789913201.845551,-10.742,19.043,-11.719,-99.121
1789913201.849243,-57.129,17.578,-7.324,-118.652
1789913201.852936,-57.617,15.137,-10.254,-121.094
1789913201.856629,-17.578,13.672,-11.719,-105.957
1789913201.860322,0.000,14.160,-10.742,-101.562
1789913201.864014,-48.340,14.160,-5.371,-113.770
1789913201.867707,-74.219,12.695,-9.766,-118.164
1789913201.871400,-37.598,9.766,-15.625,-106.445
1789913201.877963,0.000,10.254,-14.160,-90.820
1789913201.881664,0.000,11.719,-19.531,-108.887
1789913201.885365,0.000,18.066,-13.672,-118.164
1789913201.889066,0.000,24.414,-5.859,-97.168
1789913201.892766,0.000,24.902,-5.859,-79.102
1789913201.896467,0.000,25.391,-2.930,-76.660
1789913201.900167,0.000,21.973,-2.930,-92.773
1789913201.903868,0.000,26.367,-6.348,-87.891
1789913201.907569,0.000,24.414,-7.324,-69.336
1789913201.911269,0.000,23.926,-8.301,-73.242
1789913201.914970,0.000,29.297,-6.348,-105.469
1789913201.918671,0.000,27.344,-4.883,-113.281
1789913201.924991,0.488,26.367,-9.766,-89.844
1789913201.928699,16.113,21.973,-9.277,-82.031
1789913201.932407,-29.297,17.578,-10.254,-100.098
1789913201.936114,-53.711,12.207,-17.090,-107.422
1789913201.939822,-24.414,11.719,-17.578,-92.285
1789913201.943530,10.742,14.648,-11.230,-71.289
1789913201.947237,-10.254,20.508,-5.371,-73.730
1789913201.950945,-51.758,21.973,-4.395,-94.238
1789913201.954653,-22.949,19.043,-2.930,-88.379
1789913201.958360,20.996,21.973,1.465,-77.637
1789913201.962068,-2.930,29.785,3.418,-103.027
1789913201.965776,-53.711,27.832,7.324,-123.047
1789913201.971846,-41.992,21.484,3.906,-122.559
1789913201.975559,-15.137,24.414,5.371,-114.746
1789913201.979273,-0.977,32.227,18.066,-93.262
1789913201.982987,-47.852,27.832,13.672,-116.211
1789913201.986701,-80.566,28.320,2.441,-141.113
1789913201.990415,-56.152,28.320,-4.395,-127.930
1789913201.994129,-35.645,27.344,-1.953,-113.281
1789913201.997843,-71.777,35.156,12.207,-125.488
1789913202.001556,-116.211,39.062,14.648,-137.695
1789913202.005270,-108.398,42.480,9.277,-131.836
1789913202.008984,-81.543,41.016,14.160,-123.047
1789913202.012698,-97.168,43.945,26.367,-136.230
1789913202.018647,0.000,45.410,29.785,-152.832
1789913202.022367,0.000,40.039,29.785,-142.578
1789913202.026086,0.000,41.016,32.227,-119.141
1789913202.029806,0.000,38.086,32.715,-123.535
1789913202.033525,0.000,34.668,37.598,-138.672
1789913202.037245,0.000,33.203,36.621,-126.465
1789913202.040964,0.000,29.785,32.715,-120.605
1789913202.044684,0.000,23.926,31.250,-93.262
1789913202.048404,0.000,20.020,29.297,-82.520
1789913202.052123,0.000,26.855,30.273,-80.078
1789913202.055842,0.000,19.531,21.973,-53.711
1789913202.059562,0.000,16.113,10.254,-39.062
1789913202.065288,-48.828,24.414,10.254,-44.434
1789913202.069012,-79.590,18.066,4.883,-44.434
1789913202.072737,-54.199,14.160,-1.953,-22.461
1789913202.076461,-12.695,17.090,-1.465,-1.465
1789913202.080185,-18.555,11.719,-3.906,4.883
1789913202.083910,-51.758,7.812,-8.301,-3.418
1789913202.087634,-36.133,9.277,-12.207,3.906
1789913202.091358,0.488,15.625,-15.625,27.344
1789913202.095083,6.348,20.020,-10.254,34.180
1789913202.098807,-25.879,14.648,-15.137,2.441
1789913202.102532,-32.227,2.930,-29.785,-11.719
1789913202.106256,-10.742,0.488,-30.273,12.695
1789913202.111940,0.000,6.348,-26.367,36.621
1789913202.115669,0.000,4.883,-24.414,17.578
1789913202.119398,0.000,1.953,-26.367,9.277
1789913202.123127,0.000,4.395,-28.809,17.090
1789913202.126856,0.000,3.906,-30.273,27.832
1789913202.130585,0.000,3.418,-31.738,16.113
1789913202.134314,0.000,4.395,-28.320,2.441
1789913202.138043,0.000,8.789,-24.414,14.160
1789913202.141772,0.000,13.184,-27.344,7.812
1789913202.145501,0.000,8.301,-27.344,-7.324
1789913202.149230,0.000,8.789,-28.320,-26.367
1789913202.152960,0.000,7.324,-32.715,-29.785
1789913202.158406,17.090,5.371,-30.273,-18.555
1789913202.162139,20.996,4.883,-22.949,-15.625
1789913202.165872,-24.902,1.465,-25.879,-46.387
1789913202.169605,-39.062,-1.465,-31.250,-59.082
1789913202.173338,-7.812,-1.953,-31.738,-43.945
1789913202.177071,6.348,-7.812,-31.738,-41.504
1789913202.180804,-41.992,-16.602,-41.992,-67.383
1789913202.184537,-74.219,-22.949,-54.199,-94.727
1789913202.188270,-51.270,-27.344,-59.082,-91.797
1789913202.192003,-30.762,-26.855,-61.523,-69.336
1789913202.195736,-54.199,-25.391,-59.570,-91.309
1789913202.199469,-92.285,-25.391,-61.523,-127.930
1789913202.205697,-66.895,-26.367,-59.570,-119.141
1789913202.209435,-13.672,-20.020,-53.223,-100.586
1789913202.213174,-28.320,-17.578,-55.176,-104.980
1789913202.216913,-88.379,-27.832,-64.941,-133.789
1789913202.220652,-78.125,-31.738,-65.430,-133.301
1789913202.224390,-35.156,-32.715,-59.082,-110.840
1789913202.228129,-35.645,-34.180,-63.965,-104.492
1789913202.231868,-84.473,-30.273,-65.430,-123.047
1789913202.235606,-94.727,-30.762,-62.500,-133.301
1789913202.239345,-57.617,-30.762,-61.523,-110.352
1789913202.243084,-23.438,-24.902,-59.082,-90.820
1789913202.246822,-46.875,-21.973,-46.387,-100.098
1789913202.252867,-72.266,-20.996,-41.992,-105.469
1789913202.256610,-49.805,-18.555,-42.480,-89.355
1789913202.260354,-24.902,-25.879,-44.922,-70.801
1789913202.264098,-45.410,-31.250,-48.340,-71.289
1789913202.267842,-74.707,-25.391,-42.969,-82.031
1789913202.271585,-50.781,-22.461,-39.551,-70.801
1789913202.275329,-20.996,-21.484,-39.551,-47.363
1789913202.279073,-19.531,-12.207,-38.086,-29.297
1789913202.282816,-57.617,-12.695,-37.109,-43.457
1789913202.286560,-60.059,-14.648,-37.598,-49.805
1789913202.290304,-27.832,-6.348,-32.227,-46.387
1789913202.294048,-17.090,-14.160,-41.504,-52.246
1789913202.299917,-64.453,-25.879,-48.828,-70.312
1789913202.303666,-87.402,-30.762,-45.898,-84.473
1789913202.307414,-52.246,-27.832,-42.480,-65.430
1789913202.311162,-26.367,-18.555,-36.133,-47.852
1789913202.314911,-53.711,-16.602,-38.086,-69.336
1789913202.318659,-83.008,-17.578,-41.992,-93.262
1789913202.322407,-62.012,-22.461,-38.574,-83.984
1789913202.326155,-24.902,-29.297,-35.156,-68.848
1789913202.329904,-30.762,-24.414,-38.574,-63.965
1789913202.333652,-74.219,-19.043,-41.504,-85.449
1789913202.337400,-77.637,-18.555,-37.598,-91.309
1789913202.341148,-44.922,-15.625,-32.227,-59.082
1789913202.346868,-30.762,-10.742,-32.715,-48.828
1789913202.350620,-71.289,-11.230,-29.785,-81.543
1789913202.354372,-77.637,-12.695,-26.367,-84.473
1789913202.358125,-41.016,-7.812,-26.367,-59.082
1789913202.361877,-21.484,-13.672,-29.297,-55.664
1789913202.365629,-52.246,-17.090,-28.809,-73.242
1789913202.369382,-71.777,-12.207,-30.762,-82.520
1789913202.373134,-46.875,-13.672,-30.762,-79.102
1789913202.376887,-20.020,-16.602,-23.926,-60.059
1789913202.380639,-46.875,-21.484,-26.855,-67.383
1789913202.384391,-83.496,-21.973,-25.879,-92.773
1789913202.388144,-69.336,-19.531,-24.414,-82.520
1789913202.393802,0.000,-21.973,0.000,-71.777
1789913202.397558,0.000,-21.484,0.000,-80.566
1789913202.401314,0.000,-15.137,0.000,-96.680
1789913202.405071,0.000,-9.277,0.000,-89.355
1789913202.408827,0.000,-7.324,0.000,-71.777
1789913202.412583,0.000,-11.230,0.000,-62.012
1789913202.416339,0.000,-11.719,0.000,-84.473
1789913202.420095,0.000,-12.695,0.000,-93.750
1789913202.423852,0.000,-11.230,0.000,-75.195
1789913202.427608,0.000,-4.395,0.000,-69.336
1789913202.431364,0.000,-8.789,0.000,-79.590
1789913202.435121,0.000,-7.812,0.000,-89.355
1789913202.440535,-41.016,0.000,-23.438,-79.590
1789913202.444295,-3.418,-2.930,-18.066,-71.777
1789913202.448054,-20.020,-2.441,-19.043,-76.172
1789913202.451814,-60.059,5.371,-22.949,-95.215
1789913202.455573,-40.527,4.883,-24.414,-103.027
1789913202.459333,4.883,1.465,-19.531,-88.867
1789913202.463092,-7.812,2.930,-20.508,-75.684
1789913202.466852,-56.152,2.930,-21.484,-87.891
1789913202.470612,-49.805,9.277,-17.578,-92.773
1789913202.474371,-11.719,5.859,-20.996,-76.172
1789913202.478131,0.977,-0.977,-23.926,-63.965
1789913202.481890,-48.340,4.883,-20.508,-88.379
1789913202.487991,-68.359,11.719,-16.113,-101.562
1789913202.491755,-35.156,12.207,-13.672,-80.078
1789913202.495519,-8.789,11.230,-12.207,-68.359
1789913202.499283,-40.039,17.578,-13.184,-87.891
1789913202.503047,-69.824,17.578,-14.648,-100.098
1789913202.506812,-44.434,16.602,-11.230,-86.426
1789913202.510576,-3.418,20.996,-6.836,-69.336
1789913202.514340,-13.672,24.902,-9.766,-81.543
1789913202.518104,-60.059,26.855,-4.883,-108.398
1789913202.521868,-46.387,20.508,-6.348,-103.027
1789913202.525632,-18.066,15.625,-20.996,-92.285
1789913202.529396,-32.715,10.742,-26.367,-87.891
1789913202.536153,-86.426,3.418,-30.273,-117.188
1789913202.539923,-89.844,-1.953,-36.621,-135.254
1789913202.543693,-50.781,-6.348,-39.062,-119.629
1789913202.547462,-31.738,-4.883,-38.574,-102.051
1789913202.551232,-70.801,0.488,-31.250,-120.117
1789913202.555002,-79.590,1.465,-32.715,-128.418
1789913202.558772,-83.496,-7.812,-40.039,-131.836
1789913202.562541,-86.426,-5.859,-38.574,-135.742
1789913202.566311,-41.504,2.930,-34.668,-124.512
1789913202.570081,-10.742,8.789,-31.738,-111.328
1789913202.573851,-47.363,8.301,-34.180,-121.582
1789913202.577620,-71.777,4.883,-33.203,-126.953
1789913202.583355,-41.992,14.160,-24.414,-111.816
1789913202.587128,-6.348,27.832,-16.113,-102.051
1789913202.590902,-28.320,28.320,-14.648,-108.887
1789913202.594675,-73.730,21.484,-15.625,-130.371
1789913202.598449,-55.176,18.066,-20.996,-122.559
1789913202.602222,-19.043,19.043,-25.391,-106.445
1789913202.605995,-21.484,20.508,-23.438,-98.633
1789913202.609769,-65.918,26.855,-14.648,-104.004
1789913202.613542,-63.477,27.832,-11.719,-110.352
1789913202.617316,-25.391,21.484,-12.695,-100.098
1789913202.621089,-7.324,20.508,-12.207,-85.938
1789913202.624862,-43.945,19.043,-9.766,-95.215
1789913202.630431,-56.152,15.625,-8.301,-95.703
1789913202.634207,-31.738,18.066,-8.301,-68.359
1789913202.637984,-25.391,21.973,-12.695,-38.086
1789913202.641761,-64.453,19.043,-10.742,-36.621
1789913202.645537,-91.309,14.160,-8.301,-42.480
1789913202.649314,-54.688,14.160,-10.254,-34.180
1789913202.653091,-16.602,20.996,-1.953,-13.672
1789913202.656868,-41.016,28.320,3.906,-23.926
1789913202.660644,-75.195,23.926,0.488,-51.270
1789913202.664421,-59.570,17.090,-3.906,-44.434
1789913202.668197,-33.203,17.578,-7.812,-30.273
1789913202.671974,-34.180,18.555,-5.371,-32.715
1789913202.677479,-72.266,16.602,-6.348,-62.988
1789913202.681258,-64.453,16.113,-10.254,-56.152
1789913202.685038,-20.996,19.531,-8.789,-36.133
1789913202.688818,-8.789,19.531,-9.277,-37.109
1789913202.692597,-54.688,12.207,-10.742,-66.406
1789913202.696377,-67.871,4.883,-10.254,-80.078
1789913202.700157,-34.180,0.977,-11.230,-60.059
1789913202.703937,-13.672,0.000,-11.230,-50.293
1789913202.707716,-41.016,1.953,-8.301,-53.711
1789913202.711496,-71.777,-6.836,-11.719,-53.223
1789913202.715276,-56.152,-7.812,-14.648,-38.086
1789913202.719055,-21.973,-4.395,-11.230,-15.625
1789913202.724405,-30.762,-3.418,-4.883,-15.625
1789913202.728187,-73.730,-2.441,-7.324,-45.410
1789913202.731970,-50.293,0.488,-9.766,-40.527
1789913202.735752,-10.254,7.324,-4.395,-22.949
1789913202.739534,-7.812,7.812,-2.441,-22.461
1789913202.743317,-51.270,0.488,-4.883,-49.805
1789913202.747099,-61.035,-5.859,-3.906,-55.664
1789913202.750882,-3.906,3.418,0.488,-20.996
1789913202.754664,11.719,6.836,-5.859,-22.461
1789913202.758447,-56.152,-9.766,-13.184,-65.430
1789913202.762229,-80.078,-11.719,-15.625,-76.660
1789913202.766011,-33.691,-7.324,-18.555,-52.734
1789913202.771963,0.000,-2.930,-16.113,-36.621
1789913202.775749,0.000,-5.859,-15.625,-48.340
1789913202.779535,0.000,-6.348,-14.648,-70.312
1789913202.783321,0.000,-5.371,-13.672,-72.754
1789913202.787107,0.000,-6.836,-9.277,-55.664
1789913202.790894,0.000,-4.395,-2.441,-43.945
1789913202.794680,0.000,-6.836,-4.395,-62.988
1789913202.798466,0.000,-8.301,-2.441,-58.105
1789913202.802252,0.000,9.277,2.930,-30.762
1789913202.806038,0.000,-0.977,-2.441,-22.461
1789913202.809824,0.000,-12.207,-11.230,-65.918
1789913202.813610,0.000,-7.812,-11.719,-85.938
1789913202.819403,3.418,-6.348,-9.277,-69.824
1789913202.823192,35.156,0.977,-4.883,-55.176
1789913202.826982,-3.418,0.977,-3.418,-57.617
1789913202.830771,-43.945,-2.930,-9.766,-69.336
1789913202.834561,-23.926,-6.836,-11.230,-62.500
1789913202.838350,3.906,-8.301,-9.277,-53.223
1789913202.842139,-12.695,-10.742,-13.672,-64.941
1789913202.845929,-41.992,-9.277,-13.184,-85.449
1789913202.849719,-25.879,-8.789,-13.672,-79.102
1789913202.853508,14.648,-1.465,-11.719,-58.105
1789913202.857297,18.555,8.301,-5.371,-53.711
1789913202.861087,-22.949,9.277,3.418,-62.988
1789913202.866751,-29.785,8.301,0.977,-51.758
1789913202.870543,-4.395,4.883,-9.277,-44.922
1789913202.874336,14.160,4.395,-11.719,-42.480
1789913202.878128,-24.414,3.418,-6.836,-67.871
1789913202.881921,-30.273,5.859,-2.441,-85.449
1789913202.885713,-8.301,5.371,-5.371,-69.336
1789913202.889506,0.488,-1.465,-10.254,-58.594
1789913202.893298,-25.391,-3.418,-5.859,-75.195
1789913202.897091,-53.223,-2.441,2.441,-78.613
1789913202.900883,-27.344,4.395,0.000,-72.754
1789913202.904676,8.301,8.301,-1.953,-64.941
1789913202.908468,-14.648,6.348,-1.953,-68.359
1789913202.914682,0.000,7.324,-2.441,-93.262
1789913202.918478,0.000,15.625,-0.977,-82.031
1789913202.922275,0.000,18.555,-0.977,-63.965
1789913202.926071,0.000,17.090,-0.488,-62.500
1789913202.929868,0.000,18.555,2.930,-83.496
1789913202.933664,0.000,25.879,0.977,-83.008
1789913202.937460,0.000,35.156,-10.254,-62.500
1789913202.941257,0.000,37.109,-13.184,-46.387
1789913202.945053,0.000,20.020,-11.230,-53.223
1789913202.948850,0.000,11.719,-9.277,-55.176
1789913202.952646,0.000,10.254,-3.418,-40.039
1789913202.956442,0.000,3.906,1.465,-32.227
1789913202.961761,-18.555,6.836,2.441,-49.805
1789913202.965559,-61.035,-6.836,-11.230,-83.496
1789913202.969358,-45.898,-25.391,-27.832,-83.008
1789913202.973157,-34.180,-24.902,-32.227,-74.219
1789913202.976956,-51.758,-21.484,-31.738,-87.891
1789913202.980755,-80.566,-22.461,-31.738,-105.957
1789913202.984554,-75.684,-22.461,-37.109,-109.375
1789913202.988352,-41.992,-24.414,-45.410,-109.375
1789913202.992151,-29.297,-26.855,-42.480,-114.258
1789913202.995950,-73.730,-28.320,-40.527,-127.441
1789913202.999749,-81.055,-29.297,-43.945,-128.906
1789913203.003547,-43.945,-26.855,-36.133,-98.145
1789913203.008789,0.000,-25.391,-34.180,-81.543
1789913203.012590,0.000,-29.785,-41.992,-113.281
1789913203.016391,0.000,-24.902,-39.062,-127.930
1789913203.020192,0.000,-21.484,-33.203,-113.281
1789913203.023993,0.000,-22.461,-29.297,-98.145
1789913203.027794,0.000,-19.043,-24.902,-89.844
1789913203.031595,0.000,-24.414,-32.715,-104.980
1789913203.035396,0.000,-22.949,-34.668,-105.469
1789913203.039197,0.000,-14.648,-29.785,-90.820
1789913203.042998,0.000,-11.719,-27.832,-94.238
1789913203.046799,0.000,-16.113,-23.438,-114.746
1789913203.050600,0.000,-15.625,-17.090,-115.234
1789913203.055698,-38.574,-11.230,-11.230,-92.773
1789913203.059501,-36.621,-13.672,-11.719,-86.426
1789913203.063304,-70.312,-14.648,-9.277,-105.957
1789913203.067107,-63.965,-15.625,-11.230,-115.723
1789913203.070910,-21.484,-11.719,-14.648,-102.051
1789913203.074713,8.789,-6.348,-10.742,-74.219
1789913203.078516,-29.297,3.418,-8.789,-82.031
1789913203.082319,-62.500,13.672,-9.277,-109.863
1789913203.086122,-36.133,11.230,-9.766,-100.098
1789913203.089925,-3.906,13.184,-10.742,-81.055
1789913203.093728,-20.020,17.090,-7.324,-88.867
1789913203.097531,-65.918,12.207,-0.977,-109.863
1789913203.103219,-50.781,11.230,1.953,-93.262
1789913203.107025,8.301,20.020,5.371,-62.012
1789913203.110831,19.531,23.926,3.418,-66.895
1789913203.114637,-39.062,23.926,2.930,-95.703
1789913203.118443,-46.387,31.250,10.254,-83.984
1789913203.122248,-5.371,27.344,8.301,-59.570
1789913203.126054,7.812,24.414,4.883,-42.969
1789913203.129860,-35.645,26.855,5.371,-60.059
1789913203.133666,-43.945,22.949,5.371,-75.684
1789913203.137471,-5.371,20.508,5.859,-60.547
1789913203.141277,20.020,19.531,3.418,-57.129
1789913203.145083,-12.207,20.508,4.395,-74.707
1789913203.150609,-54.688,21.973,1.953,-96.191
1789913203.154418,-36.133,29.785,4.395,-73.730
1789913203.158226,-6.348,37.109,5.859,-45.410
1789913203.162034,-20.020,37.109,4.883,-66.406
1789913203.165843,-56.641,34.180,4.883,-90.332
1789913203.169651,-44.922,27.344,-0.488,-79.590
1789913203.173459,-1.953,25.391,-3.906,-73.730
1789913203.177268,5.859,27.344,-1.465,-69.336
1789913203.181076,-28.809,30.273,5.859,-71.777
1789913203.184884,-33.203,27.832,7.324,-68.359
1789913203.188693,-17.090,24.414,0.000,-70.312
1789913203.192501,-2.930,26.367,0.977,-62.500
1789913203.197913,-32.715,27.832,0.977,-69.824
1789913203.201724,-59.082,27.832,-2.930,-92.285
1789913203.205534,-34.668,27.344,-7.812,-83.984
1789913203.209345,-2.441,22.461,-12.695,-66.406
1789913203.213156,-26.855,26.367,-8.789,-83.008
1789913203.216966,-55.664,28.809,-10.742,-106.934
1789913203.220777,-35.645,26.367,-20.020,-102.051
1789913203.224587,-11.719,25.391,-18.555,-84.473
1789913203.228398,-17.578,20.996,-13.184,-78.613
1789913203.232209,-61.035,12.695,-15.137,-105.469
1789913203.236019,-56.641,8.789,-20.996,-104.980
1789913203.239830,-18.555,5.859,-20.020,-76.660
1789913203.245103,-7.324,8.301,-15.137,-69.336
1789913203.248916,-47.852,8.789,-18.066,-96.191
1789913203.252728,-62.500,5.859,-20.020,-96.680
1789913203.256541,-29.785,13.184,-20.508,-74.707
1789913203.260354,-1.465,17.578,-23.438,-69.824
1789913203.264166,-28.320,14.160,-24.414,-81.055
1789913203.267979,-45.898,20.996,-19.531,-83.008
1789913203.271792,-13.672,26.367,-15.625,-71.289
1789913203.275604,13.184,22.461,-14.648,-44.922
1789913203.279417,-3.906,19.531,-9.766,-43.945
1789913203.283230,-32.715,20.020,-6.836,-63.477
1789913203.287043,-25.879,18.555,-5.859,-49.316
1789913203.292432,0.000,18.555,-10.742,-34.668
1789913203.296247,0.000,19.531,-13.184,-39.062
1789913203.300062,0.000,13.184,-15.137,-58.594
1789913203.303877,0.000,13.184,-20.020,-63.965
1789913203.307692,0.000,16.602,-20.020,-48.340
1789913203.311507,0.000,16.113,-16.113,-35.645
1789913203.315322,0.000,9.766,-15.625,-50.293
1789913203.319137,0.000,1.465,-18.555,-62.012
1789913203.322951,0.000,-0.488,-20.508,-49.316
1789913203.326766,0.000,0.977,-18.066,-33.203
1789913203.330581,0.000,3.418,-13.672,-48.340
1789913203.334396,0.000,2.930,-13.672,-62.012
1789913203.339488,-51.270,0.488,-17.578,-49.316
1789913203.343305,-17.090,5.371,-13.672,-31.250
1789913203.347121,-41.992,7.812,-13.184,-27.344
1789913203.350938,-91.309,4.395,-15.137,-51.758
1789913203.354754,-69.824,5.371,-11.230,-53.711
1789913203.358571,-26.367,10.742,-14.160,-33.691
1789913203.362388,-21.973,2.930,-19.043,-30.273
1789913203.366204,-62.500,-0.977,-16.113,-45.898
1789913203.370021,-73.242,2.930,-20.020,-51.270
1789913203.373837,-34.668,1.953,-16.602,-33.691
1789913203.377654,-13.184,6.348,-13.184,-18.066
1789913203.381471,-50.781,9.766,-13.184,-41.016
1789913203.386447,-60.547,9.277,-13.184,-52.246
1789913203.390265,-32.227,10.254,-11.719,-39.062
1789913203.394084,-7.324,8.789,-11.230,-24.902
1789913203.397902,-23.926,10.254,-13.184,-31.738
1789913203.401720,-53.223,7.324,-13.672,-58.594
1789913203.405538,-32.227,3.906,-12.695,-58.105
1789913203.409356,5.371,5.859,-14.648,-38.086
1789913203.413175,-12.695,0.488,-13.672,-40.039
1789913203.416993,-57.617,-3.906,-13.672,-71.777
1789913203.420811,-34.668,3.418,-19.043,-63.477
1789913203.424629,6.348,7.324,-11.230,-34.180
1789913203.428447,-11.719,4.395,-7.812,-37.109
1789913203.433415,-68.848,3.418,-10.742,-56.641
1789913203.437235,-63.965,2.441,-4.883,-62.012
1789913203.441055,-40.039,-5.859,-6.836,-58.105
1789913203.444875,-35.645,-8.301,-14.160,-58.594
1789913203.448694,-57.129,-3.418,-8.301,-63.477
1789913203.452514,-69.824,-5.859,-4.395,-57.129
1789913203.456334,-45.898,-11.230,-11.230,-40.039
1789913203.460153,-15.625,-3.906,-9.766,-36.133
1789913203.463973,-33.691,3.418,-8.789,-46.875
1789913203.467793,-74.707,0.488,-12.695,-74.219
1789913203.471612,-51.758,-5.859,-5.859,-69.824
1789913203.475432,-20.508,-10.254,-5.859,-46.387
1789913203.480239,-29.785,-6.836,-12.207,-48.828
1789913203.484060,-64.453,-7.812,-10.742,-71.777
1789913203.487881,-64.453,-15.137,-14.160,-73.242
1789913203.491702,-36.133,-15.137,-19.531,-59.082
1789913203.495523,-18.555,-8.301,-20.020,-52.734
1789913203.499344,-48.828,-1.953,-14.648,-77.148
1789913203.503165,-61.035,4.395,-13.184,-99.609
1789913203.506986,-31.250,8.789,-10.742,-87.402
1789913203.510807,-5.859,8.789,-5.371,-66.895
1789913203.514628,-39.551,2.930,-11.719,-75.684
1789913203.518449,-76.660,-0.977,-21.973,-86.914
1789913203.522270,-54.199,-3.418,-21.484,-83.008
1789913203.527546,-3.906,-4.883,-17.090,-61.035
1789913203.531369,-21.484,-9.277,-16.113,-66.406
1789913203.535192,-71.289,-11.230,-22.461,-102.051
1789913203.539015,-62.988,-20.020,-29.297,-100.586
1789913203.542838,-34.180,-29.297,-23.926,-84.473
1789913203.546661,-32.227,-19.531,-18.555,-76.660
1789913203.550483,-71.289,-16.602,-21.973,-96.680
1789913203.554306,-76.660,-20.996,-25.879,-108.398
1789913203.558129,-36.621,-16.602,-28.320,-88.867
1789913203.561952,-17.090,-6.348,-26.855,-73.730
1789913203.565775,-59.570,-9.277,-21.973,-91.309
1789913203.569598,-66.895,-13.672,-18.066,-96.680
1789913203.574828,0.000,-11.719,-20.996,-93.262
1789913203.578652,0.000,-13.672,-27.344,-86.914
1789913203.582477,0.000,-13.672,-22.949,-93.750
1789913203.586302,0.000,-20.020,-22.461,-100.098
1789913203.590126,0.000,-29.297,-29.297,-89.844
1789913203.593951,0.000,-25.879,-29.297,-76.660
1789913203.597775,0.000,-26.367,-24.902,-78.125
1789913203.601600,0.000,-28.320,-26.855,-100.586
1789913203.605425,0.000,-28.320,-28.809,-96.680
1789913203.609249,0.000,-20.020,-27.832,-77.637
1789913203.613074,0.000,-14.648,-21.484,-83.008
1789913203.616899,0.000,-23.926,-27.832,-107.422
1789913203.621954,-78.613,-21.973,-31.738,-103.516
1789913203.625781,-52.246,-11.719,-24.902,-90.820
1789913203.629607,-22.461,-7.812,-21.973,-87.891
1789913203.633433,-51.270,-10.254,-21.973,-104.004
1789913203.637259,-72.266,-14.648,-25.391,-117.188
1789913203.641085,-39.062,-14.648,-23.438,-114.746
1789913203.644911,-5.859,-5.371,-17.578,-97.656
1789913203.648737,-28.809,0.977,-18.555,-97.656
1789913203.652564,-64.453,4.883,-17.578,-104.492
1789913203.656390,-50.293,10.742,-23.438,-109.863
1789913203.660216,-18.555,8.789,-30.273,-90.820
1789913203.664042,-15.137,6.836,-27.832,-78.613
1789913203.669034,-61.523,6.348,-27.344,-107.910
1789913203.672862,-63.477,3.418,-26.855,-110.840
1789913203.676689,-19.531,-0.977,-22.461,-93.262
1789913203.680517,2.441,0.977,-27.344,-86.426
1789913203.684344,-41.016,-0.488,-26.367,-106.445
1789913203.688172,-42.969,-3.906,-22.461,-115.234
1789913203.691999,1.953,-3.906,-22.949,-98.633
1789913203.695827,10.742,-10.254,-20.996,-79.590
1789913203.699655,-32.227,-11.719,-19.043,-90.820
1789913203.703482,-67.383,-12.695,-20.020,-104.980
1789913203.707310,-42.969,-15.137,-20.996,-96.191
1789913203.711137,-7.324,-17.090,-19.043,-77.148
1789913203.716052,-22.949,-21.484,-20.996,-82.031
1789913203.719881,-64.453,-22.461,-25.879,-107.910
1789913203.723710,-54.688,-16.113,-22.461,-100.586
1789913203.727539,-18.555,-13.672,-20.508,-87.891
1789913203.731368,-20.020,-19.043,-25.391,-93.262
1789913203.735197,-64.453,-23.438,-26.367,-109.375
1789913203.739026,-56.152,-23.438,-25.879,-100.098
1789913203.742854,-17.090,-22.949,-24.902,-82.520
1789913203.746683,-13.672,-15.137,-25.879,-86.426
1789913203.750512,-57.129,-15.625,-27.344,-104.004
1789913203.754341,-67.871,-20.020,-28.320,-110.352
1789913203.758170,-35.645,-18.555,-27.832,-99.609
1789913203.762988,0.000,-19.043,-24.414,-83.984
1789913203.766818,0.000,-14.648,-19.043,-95.215
1789913203.770648,0.000,-14.160,-20.020,-125.000
1789913203.774478,0.000,-20.020,-25.391,-128.418
1789913203.778308,0.000,-26.855,-25.879,-125.000
1789913203.782138,0.000,-30.273,-31.250,-135.254
1789913203.785968,0.000,-27.344,-31.738,-134.766
1789913203.789798,0.000,-24.414,-28.320,-138.184
1789913203.793628,0.000,-24.414,-29.785,-133.301
1789913203.797458,0.000,-19.043,-21.973,-109.375
1789913203.801288,0.000,-11.719,-19.531,-115.723
1789913203.805118,0.000,-7.324,-22.461,-110.352
1789913203.808317,-6.348,-2.930,-19.043,-87.891
1789913203.812147,-30.762,-2.930,-14.648,-83.008
1789913203.815976,-68.359,-2.930,-18.555,-101.074
1789913203.819805,-59.570,-0.488,-19.043,-113.281
1789913203.823635,-30.273,1.465,-16.113,-99.609
1789913203.827464,-39.551,1.953,-13.672,-73.730
1789913203.831293,-82.031,-2.441,-12.695,-67.383
1789913203.835123,-70.801,-1.953,-14.648,-81.055
1789913203.838952,-32.227,3.418,-10.254,-71.777
1789913203.842781,-18.066,3.418,-10.254,-51.270
1789913203.846611,-56.152,2.441,-11.719,-50.781
1789913203.850440,-66.406,-2.441,-10.742,-73.730
1789913203.855146,-42.480,-8.301,-16.602,-74.707
1789913203.858976,-13.184,-9.766,-20.508,-59.082
1789913203.862806,-5.859,-4.395,-17.090,-51.758
1789913203.866637,-48.340,1.465,-7.812,-58.105
1789913203.870467,-53.223,1.953,-3.418,-57.129
1789913203.874297,-8.301,2.441,-4.395,-33.203
1789913203.878128,14.160,5.859,-4.395,-20.020
1789913203.881958,-31.738,7.324,-4.883,-42.480
1789913203.885788,-54.688,4.883,-4.395,-44.434
1789913203.889619,-16.113,1.953,-1.953,-17.090
1789913203.893449,13.672,5.371,-10.254,-16.602
1789913203.897280,-6.348,7.812,-11.230,-30.273
1789913203.902411,-50.293,5.371,-9.277,-41.992
1789913203.906243,-41.504,4.395,-17.578,-33.203
1789913203.910075,-3.418,1.953,-20.508,-3.906
1789913203.913907,5.371,0.488,-16.602,2.441
1789913203.917738,-23.926,0.977,-6.348,-23.926
1789913203.921570,-23.438,3.418,-6.348,-23.438
1789913203.925402,-2.441,0.000,-15.137,8.789
1789913203.929234,-8.301,-11.719,-18.066,28.809
1789913203.933066,-51.270,-17.578,-20.020,14.648
1789913203.936898,-48.340,-13.672,-16.113,22.461
1789913203.940729,-13.184,-14.648,-18.555,33.203
1789913203.944561,7.324,-18.555,-23.438,28.809
1789913203.949619,-20.996,-14.648,-15.625,7.324
1789913203.953452,-49.805,-15.625,-16.113,-19.043
1789913203.957286,-24.414,-18.555,-16.602,-5.859
1789913203.961119,20.508,-16.602,-13.184,21.484
1789913203.964952,6.836,-23.926,-16.113,11.719
1789913203.968785,-42.969,-34.668,-10.742,-18.555
1789913203.972618,-38.086,-39.551,-13.184,-20.996
1789913203.976452,3.418,-43.457,-20.508,-8.301
1789913203.980285,4.883,-42.480,-14.648,0.488
1789913203.984118,-47.363,-38.086,-20.508,-22.949
1789913203.987951,-39.551,-40.527,-27.832,-33.691
1789913203.991785,6.836,-39.551,-20.996,-13.672
1789913203.996849,19.043,-32.715,-19.043,-10.742
1789913204.000684,-32.227,-32.715,-21.973,-39.551
1789913204.004518,-48.340,-37.109,-22.949,-47.363
1789913204.008353,-11.230,-37.109,-22.461,-32.715
1789913204.012187,4.883,-35.156,-21.973,-16.602
1789913204.016022,-30.762,-42.969,-31.250,-30.762
1789913204.019856,-72.266,-52.246,-38.574,-61.523
1789913204.023691,-57.129,-52.246,-37.598,-52.246
1789913204.027526,-17.090,-42.969,-34.668,-14.160
1789913204.031360,-24.902,-36.621,-34.668,-18.066
1789913204.035195,-59.570,-35.645,-35.156,-57.129
1789913204.039029,-49.316,-35.156,-32.227,-57.617
1789913204.043913,-24.414,-34.668,-35.156,-41.992
1789913204.047748,-16.113,-31.738,-34.668,-34.668
1789913204.051584,-50.293,-31.250,-28.809,-51.270
1789913204.055420,-53.711,-29.297,-24.902,-63.965
1789913204.059256,-20.020,-24.414,-24.902,-56.152
1789913204.063091,-1.953,-24.902,-24.414,-48.340
1789913204.066927,-36.133,-25.879,-27.344,-71.289
1789913204.070763,-54.688,-26.855,-31.738,-82.031
1789913204.074599,-23.438,-18.555,-34.668,-68.359
1789913204.078434,-0.977,-20.020,-41.016,-62.500
1789913204.082270,-31.250,-23.926,-32.715,-78.125
1789913204.086106,-76.172,-22.461,-29.297,-92.773
1789913204.090905,-62.012,-25.879,-31.250,-80.078
1789913204.094742,-10.254,-25.879,-32.227,-51.270
1789913204.098579,-21.484,-28.320,-37.109,-55.176
1789913204.102415,-63.477,-25.879,-32.715,-83.496
1789913204.106252,-55.664,-28.809,-30.273,-80.078
1789913204.110089,-27.832,-30.273,-31.738,-63.965
1789913204.113926,-5.859,-23.926,-32.715,-59.570
1789913204.117763,-30.762,-21.973,-28.809,-70.801
1789913204.121599,-50.293,-19.531,-28.320,-84.961
1789913204.125436,-29.297,-22.461,-35.645,-76.172
1789913204.129273,-7.812,-25.879,-40.039,-56.641
1789913204.133110,-47.852,-31.250,-38.086,-69.336
1789913204.137887,-77.637,-29.297,-32.715,-84.961
1789913204.141725,-33.691,-18.555,-26.855,-72.266
1789913204.145562,-3.906,-17.090,-20.996,-51.270
1789913204.149400,-29.297,-23.926,-24.414,-59.570
1789913204.153238,-58.594,-24.414,-26.367,-77.148
1789913204.157076,-39.551,-21.973,-27.832,-69.336
1789913204.160913,-6.836,-17.578,-27.832,-57.129
1789913204.164751,-15.137,-16.602,-27.344,-52.734
1789913204.168589,-60.059,-22.949,-33.691,-77.148
1789913204.172427,-63.477,-27.832,-34.180,-85.449
1789913204.176265,-33.691,-26.855,-25.391,-67.871
1789913204.180102,-16.602,-24.902,-21.973,-54.688
1789913204.184776,-50.293,-25.879,-23.438,-77.148
1789913204.188614,-66.406,-28.320,-22.949,-85.449
1789913204.192453,-31.738,-25.391,-19.531,-63.477
1789913204.196291,-16.113,-27.344,-19.531,-53.223
1789913204.200130,-49.316,-31.738,-21.484,-73.242
1789913204.203969,-69.824,-27.344,-22.461,-89.844
1789913204.207808,-40.039,-22.949,-20.996,-69.824
1789913204.211646,-12.695,-19.043,-20.020,-57.617
1789913204.215485,-31.250,-20.508,-23.438,-68.359
1789913204.219323,-69.336,-25.391,-19.531,-86.914
1789913204.223162,-59.082,-29.297,-19.531,-78.613
1789913204.227001,-20.508,-22.461,-25.879,-59.570
1789913204.231584,-19.531,-25.391,-29.297,-69.336
1789913204.235424,-58.594,-25.879,-23.926,-90.332
1789913204.239263,-62.500,-16.113,-26.367,-85.938
1789913204.243103,-30.273,-15.625,-38.574,-71.289
1789913204.246942,-9.766,-16.602,-32.715,-58.594
1789913204.250782,-63.965,-20.020,-25.391,-62.988
1789913204.254621,-97.656,-24.414,-33.203,-70.801
1789913204.258460,-57.129,-28.809,-36.621,-60.059
1789913204.262300,-23.438,-25.879,-32.715,-42.480
1789913204.266139,-47.363,-19.531,-28.809,-42.969
1789913204.269979,-76.660,-33.203,-30.762,-57.617
1789913204.273818,-61.035,-40.527,-38.086,-61.523
1789913204.278813,-31.250,-34.180,-39.062,-43.457
1789913204.282653,-46.387,-30.762,-37.109,-44.922
1789913204.286494,-99.121,-28.809,-39.062,-74.219
1789913204.290335,-85.449,-31.738,-42.480,-77.637
1789913204.294175,-39.062,-30.273,-37.109,-49.805
1789913204.298016,-22.949,-25.391,-35.156,-45.410
1789913204.301857,-62.500,-27.832,-40.527,-76.660
1789913204.305697,-76.172,-29.297,-40.039,-79.102
1789913204.309538,-45.410,-23.926,-37.109,-62.500
1789913204.313379,-17.090,-17.090,-34.668,-45.898
1789913204.317219,-48.828,-17.578,-30.762,-61.523
1789913204.321060,-78.613,-17.578,-24.902,-69.824
1789913204.325982,0.000,-18.066,-24.902,-39.551
1789913204.329824,0.000,-14.648,-25.879,-24.902
1789913204.333666,0.000,-16.602,-21.484,-25.879
1789913204.337507,0.000,-20.996,-19.531,-36.133
1789913204.341349,0.000,-15.137,-28.809,-61.523
1789913204.345191,0.000,-17.090,-37.598,-56.152
1789913204.349033,0.000,-15.625,-29.297,-38.086
1789913204.352874,0.000,-10.254,-23.926,-54.199
1789913204.356716,0.000,-15.137,-24.902,-58.594
1789913204.360558,0.000,-19.531,-23.926,-58.105
1789913204.364399,0.000,-21.484,-26.367,-53.223
1789913204.368241,0.000,-21.484,-30.762,-69.336
1789913204.373075,-73.242,-21.484,-32.715,-78.125
1789913204.376918,-40.527,-21.484,-37.109,-70.312
1789913204.380761,-15.137,-23.438,-31.738,-63.477
1789913204.384603,-45.898,-17.090,-21.484,-67.383
1789913204.388446,-73.242,-10.742,-25.391,-72.754
1789913204.392289,-48.340,-27.832,-28.809,-52.734
1789913204.396132,-27.832,-30.273,-30.762,-41.504
1789913204.399974,-48.828,-22.461,-38.086,-52.246
1789913204.403817,-79.102,-20.020,-38.574,-52.246
1789913204.407660,-64.941,-14.160,-34.180,-44.434
1789913204.411502,-25.879,-11.230,-33.691,-38.574
1789913204.415345,-22.949,-6.348,-31.250,-47.852
1789913204.420091,-63.965,0.488,-24.902,-78.613
1789913204.423935,-57.129,-1.465,-21.484,-79.102
1789913204.427779,-34.180,-5.859,-25.879,-66.406
1789913204.431622,-34.668,-9.766,-33.691,-64.941
1789913204.435466,-67.383,-15.137,-32.715,-85.449
1789913204.439310,-81.055,-13.672,-27.344,-90.820
1789913204.443153,-46.875,-4.395,-26.855,-73.242
1789913204.446997,-12.207,-5.371,-23.438,-51.758
1789913204.450840,-39.551,-8.301,-25.391,-59.082
1789913204.454684,-71.777,-4.883,-25.391,-86.426
1789913204.458528,-55.176,-2.930,-24.902,-69.336
1789913204.462371,-31.250,-13.672,-29.785,-52.246
1789913204.467084,-41.504,-16.113,-27.344,-59.570
1789913204.470928,-75.195,-11.230,-25.879,-66.895
1789913204.474773,-72.754,-11.719,-30.762,-64.941
1789913204.478617,-47.363,-9.277,-26.855,-54.199
1789913204.482462,-33.691,-2.930,-29.297,-46.875
1789913204.486306,-69.336,-5.371,-34.668,-62.500
1789913204.490150,-75.195,-5.859,-30.762,-63.477
1789913204.493995,-46.387,-4.883,-28.809,-43.945
1789913204.497839,-32.227,-14.160,-35.156,-47.852
1789913204.501684,-56.641,-12.207,-31.250,-59.082
1789913204.505528,-80.566,-6.836,-28.320,-57.617
1789913204.509373,-63.477,-10.254,-32.715,-54.688
1789913204.514004,-34.668,-12.695,-36.133,-39.551
1789913204.517849,-47.363,-7.324,-30.762,-40.039
1789913204.521694,-73.242,2.441,-24.902,-51.758
1789913204.525540,-49.316,6.348,-25.391,-41.016
1789913204.529385,-19.043,2.930,-26.367,-25.391
1789913204.533230,-29.297,-3.418,-28.809,-23.926
1789913204.537076,-58.105,-3.906,-32.227,-42.480
1789913204.540921,-61.523,-5.371,-38.086,-45.898
1789913204.544766,-32.227,-9.277,-36.133,-25.879
1789913204.548611,-13.184,-13.672,-27.344,-12.207
1789913204.552456,-73.730,-3.906,-20.508,-42.480
1789913204.556302,-101.562,1.953,-23.926,-63.477
1789913204.560869,-67.383,-22.949,-24.902,-46.875
1789913204.564715,-41.016,-25.391,-15.625,-30.273
1789913204.568561,-69.336,-16.113,-20.996,-35.645
1789913204.572407,-97.656,-13.672,-29.297,-45.410
1789913204.576252,-72.266,-10.254,-24.902,-50.293
1789913204.580098,-41.992,-18.066,-24.902,-37.598
1789913204.583944,-57.617,-26.855,-20.996,-32.715
1789913204.587790,-102.051,-26.855,-25.391,-69.824
1789913204.591636,-82.031,-23.926,-29.297,-83.496
1789913204.595482,-39.551,-17.578,-30.762,-69.336
1789913204.599328,-39.062,-14.648,-29.297,-67.383
1789913204.603174,-80.078,-21.973,-29.785,-91.309
1789913204.607675,-74.219,-21.484,-29.785,-89.355
1789913204.611521,-35.645,-15.625,-29.297,-72.754
1789913204.615368,-16.113,-27.344,-26.367,-62.988
1789913204.619214,-49.805,-26.367,-20.996,-77.148
1789913204.623061,-66.895,-21.973,-17.578,-92.285
1789913204.626907,-31.250,-20.996,-14.160,-77.637
1789913204.630754,-8.301,-23.926,-20.996,-59.570
1789913204.634600,-42.969,-21.484,-20.996,-60.059
1789913204.638447,-67.383,-16.602,-16.602,-68.359
1789913204.642293,-31.250,-17.090,-17.578,-55.664
1789913204.646140,-4.883,-8.789,-19.531,-54.199
1789913204.649987,-24.414,-10.254,-21.973,-66.895
1789913204.654870,-58.105,-16.602,-13.672,-75.195
1789913204.658717,-45.410,-10.254,-10.742,-68.359
1789913204.662565,-16.602,-7.812,-14.648,-53.223
1789913204.666412,-13.184,-13.184,-12.207,-35.156
1789913204.670260,-54.199,-12.207,-9.766,-43.945
1789913204.674107,-69.824,-15.625,-16.113,-57.617
1789913204.677955,-40.039,-15.137,-18.066,-55.176
1789913204.681803,-16.602,-11.719,-12.207,-47.363
1789913204.685650,-47.852,-14.160,-10.742,-62.988
1789913204.689497,-79.102,-16.602,-14.648,-71.777
1789913204.693345,-57.617,-16.113,-19.531,-73.730
1789913204.697192,-16.113,-13.184,-17.090,-57.617
1789913204.701985,-43.945,-16.602,-13.184,-62.500
1789913204.705833,-87.402,-18.555,-13.672,-92.285
1789913204.709682,-62.500,-17.090,-13.184,-84.473
1789913204.713530,-23.438,-20.020,-11.719,-59.570
1789913204.717378,-20.508,-15.137,-6.348,-34.668
1789913204.721227,-69.824,-12.207,-8.789,-44.434
1789913204.725075,-69.824,-15.625,-12.695,-67.871
1789913204.728923,-22.949,-14.160,-11.230,-53.711
1789913204.732772,-19.531,-15.625,-12.207,-30.762
1789913204.736620,-69.824,-16.602,-16.113,-50.781
1789913204.740469,-77.637,-13.672,-13.672,-50.781
1789913204.744317,-41.504,-19.043,-16.113,-41.016
1789913204.749053,-30.762,-18.066,-19.043,-36.621
1789913204.752902,-64.941,-12.207,-18.066,-37.109
1789913204.756751,-89.355,-21.484,-20.508,-56.641
1789913204.760601,-56.641,-24.414,-19.043,-44.434
1789913204.764450,-20.508,-23.926,-16.602,-27.832
1789913204.768299,-46.387,-29.297,-17.578,-32.227
1789913204.772148,-80.566,-30.762,-20.996,-41.992
1789913204.775997,-58.105,-32.227,-17.578,-29.785
1789913204.779846,-23.438,-31.738,-9.277,2.930
1789913204.783696,-42.969,-35.156,-17.578,-1.953
1789913204.787545,-89.844,-38.086,-25.391,-28.320
1789913204.791394,-78.125,-34.180,-17.578,-11.719
1789913204.796059,-38.086,-37.109,-22.949,13.672
1789913204.799909,-37.598,-36.621,-24.902,25.879
1789913204.803759,-82.520,-34.180,-23.926,20.996
1789913204.807608,-89.355,-37.109,-20.996,32.227
1789913204.811458,-56.152,-28.809,-17.090,44.434
1789913204.815308,-36.133,-23.438,-16.602,52.246
1789913204.819158,-65.430,-25.879,-14.160,38.086
1789913204.823008,-95.215,-26.855,-15.137,31.250
1789913204.826858,-82.031,-20.508,-17.090,43.945
1789913204.830708,-47.363,-17.578,-15.137,52.734
1789913204.834558,-51.270,-20.020,-16.602,52.734
1789913204.838408,-88.867,-22.461,-18.555,35.645
1789913204.843023,-72.754,-15.137,-19.043,28.320
1789913204.846873,-36.621,-9.277,-16.602,39.551
1789913204.850724,-32.227,-12.695,-15.137,46.875
1789913204.854574,-68.848,-20.996,-20.996,21.973
1789913204.858425,-80.566,-29.785,-20.508,5.859
1789913204.862276,-58.594,-33.203,-18.555,10.254
1789913204.866126,-42.969,-32.227,-19.043,22.461
1789913204.869977,-81.543,-32.227,-14.648,11.719
1789913204.873828,-103.516,-31.738,-13.184,-17.578
1789913204.877678,-69.336,-32.715,-25.879,-12.207
1789913204.881529,-36.133,-38.574,-30.762,5.371
1789913204.885380,-59.082,-39.551,-25.879,-2.930
1789913204.889907,-99.609,-41.504,-27.344,-20.508
1789913204.893758,-86.914,-41.504,-29.297,-8.301
1789913204.897609,-56.641,-41.016,-29.297,18.066
1789913204.901461,-63.477,-38.086,-27.832,18.555
1789913204.905312,-104.004,-38.086,-21.973,-6.348
1789913204.909163,-100.098,-42.480,-24.414,-17.578
1789913204.913014,-54.199,-41.016,-25.391,-1.465
1789913204.916866,-45.410,-40.039,-27.344,15.137
1789913204.920717,-93.750,-33.203,-26.855,-8.789
1789913204.924568,-101.074,-30.273,-24.902,-11.230
1789913204.928419,-65.918,-33.203,-25.391,8.789
1789913204.932271,-44.922,-32.227,-22.949,18.066
1789913204.936739,-69.824,-35.156,-25.391,6.348
1789913204.940591,-93.262,-42.969,-33.203,-8.789
1789913204.944443,-59.570,-43.457,-37.109,-7.324
1789913204.948294,-26.367,-46.875,-36.621,6.836
1789913204.952146,-50.293,-50.781,-34.668,14.648
1789913204.955998,-86.426,-48.828,-31.738,-2.441
1789913204.959850,-71.777,-51.270,-34.180,3.906
1789913204.963701,-42.969,-53.223,-37.598,25.391
1789913204.967553,-55.176,-52.246,-37.598,23.438
1789913204.971405,-95.703,-48.340,-33.691,6.348
1789913204.975256,-88.867,-46.387,-34.668,-1.953
1789913204.979108,-62.012,-44.434,-35.156,9.277
1789913204.983557,-54.688,-48.340,-34.180,18.066
1789913204.987409,-93.262,-54.199,-39.551,-3.418
1789913204.991262,-104.492,-50.781,-42.480,0.000
1789913204.995114,-76.660,-45.898,-44.434,22.949
1789913204.998966,-48.828,-43.945,-38.086,34.668
1789913205.002819,-67.383,-43.945,-30.273,27.832
1789913205.006671,-110.840,-41.504,-35.645,7.812
1789913205.010523,-89.844,-41.504,-34.180,12.695
1789913205.014375,-46.875,-42.969,-31.738,29.785
1789913205.018228,-63.965,-39.551,-36.133,16.602
1789913205.022080,-116.211,-34.180,-36.621,10.742
1789913205.025932,-108.398,-39.551,-38.574,29.297
1789913205.030712,-68.359,-42.480,-39.062,34.180
1789913205.034565,-65.918,-40.039,-40.527,27.832
1789913205.038419,-104.004,-39.551,-42.480,8.301
1789913205.042272,-101.074,-39.062,-38.574,3.418
1789913205.046125,-63.965,-40.039,-37.598,23.926
1789913205.049978,-46.875,-42.480,-37.598,46.875
1789913205.053831,-79.590,-41.504,-31.738,27.832
1789913205.057684,-84.961,-34.668,-28.320,24.902
1789913205.061537,-61.523,-30.762,-26.855,43.945
1789913205.065390,-49.316,-31.738,-28.809,50.781
1789913205.069243,-81.055,-29.785,-29.785,41.992
1789913205.073096,-116.211,-33.203,-32.715,14.648
1789913205.077806,-93.262,-39.062,-40.039,20.996
1789913205.081659,-62.500,-41.504,-37.598,46.875
1789913205.085513,-68.359,-44.922,-35.156,44.922
1789913205.089367,-103.027,-50.293,-40.039,28.809
1789913205.093221,-92.285,-46.387,-34.668,44.434
1789913205.097075,-62.500,-47.363,-33.203,59.570
1789913205.100928,-61.035,-52.246,-40.527,59.570
1789913205.104782,-99.609,-49.805,-37.598,47.363
1789913205.108636,-113.281,-49.316,-37.598,46.387
1789913205.112490,-86.426,-49.316,-43.457,52.734
1789913205.116343,-55.176,-41.504,-39.551,70.312
1789913205.120198,-80.566,-37.598,-29.297,53.711
1789913205.124851,-99.609,-40.527,-32.715,31.250
1789913205.128705,-65.918,-39.551,-36.133,51.758
1789913205.132560,-41.016,-38.574,-38.574,62.012
1789913205.136414,-63.477,-37.109,-38.574,57.129
1789913205.140269,-104.004,-38.574,-32.715,52.734
1789913205.144123,-83.008,-41.504,-33.691,62.988
1789913205.147977,-33.691,-38.574,-37.598,84.961
1789913205.151832,-36.621,-30.762,-37.109,87.402
1789913205.155686,-99.121,-32.715,-34.668,54.688
1789913205.159541,-96.191,-32.715,-28.809,47.363
1789913205.163395,-56.152,-29.785,-23.926,69.824
1789913205.167250,-45.410,-32.715,-19.043,75.195
1789913205.171827,-86.426,-42.480,-23.926,58.594
1789913205.175682,-93.750,-42.969,-33.691,52.246
1789913205.179537,-54.688,-37.598,-35.156,66.406
1789913205.183392,-42.969,-36.621,-31.250,82.031
1789913205.187247,-77.637,-33.203,-23.438,62.500
1789913205.191102,-101.562,-36.621,-25.879,47.852
1789913205.194957,-81.055,-37.598,-31.250,56.641
1789913205.198812,-42.969,-34.180,-25.879,75.684
1789913205.202667,-56.641,-29.297,-20.508,74.219
1789913205.206522,-92.773,-20.020,-21.484,47.852
1789913205.210378,-87.402,-32.715,-27.832,48.340
1789913205.214233,-66.406,-44.922,-26.855,74.707
1789913205.218756,-55.664,-42.969,-23.926,63.477
1789913205.222612,-99.609,-39.551,-25.879,30.273
1789913205.226468,-105.469,-28.320,-22.461,31.250
1789913205.230323,-70.801,-30.273,-24.414,41.504
1789913205.234179,-68.848,-41.016,-34.668,48.828
1789913205.238034,-117.676,-35.645,-36.133,18.066
1789913205.241890,-129.883,-35.645,-29.297,0.488
1789913205.245746,-93.262,-36.133,-29.297,21.973
1789913205.249601,-69.824,-26.855,-28.809,17.090
1789913205.253457,-100.586,-24.414,-22.949,1.953
1789913205.257313,-135.742,-33.691,-26.855,-13.672
1789913205.261168,-110.352,-41.016,-29.785,-23.926
1789913205.265635,-69.336,-42.480,-26.855,2.441
1789913205.269492,-84.961,-41.016,-28.320,4.883
1789913205.273348,-123.535,-36.133,-27.344,-26.855
1789913205.277204,-112.305,-32.715,-22.461,-17.090
1789913205.281060,-83.008,-28.809,-18.555,-1.953
1789913205.284916,-72.754,-29.297,-20.020,0.977
1789913205.288772,-117.676,-32.715,-27.344,-20.508
1789913205.292628,-135.254,-26.367,-29.297,-35.645
1789913205.296484,-96.191,-22.461,-28.320,-20.020
1789913205.300341,-69.336,-28.320,-26.367,-1.465
1789913205.304197,-115.723,-32.715,-26.367,-25.879
1789913205.308053,-139.648,-41.992,-29.297,-41.016
1789913205.312447,-105.469,-49.316,-25.879,-24.902
1789913205.316304,-81.055,-48.828,-28.320,-8.789
1789913205.320160,-103.027,-42.969,-39.062,-33.203
1789913205.324017,-133.301,-39.062,-41.504,-59.082
1789913205.327873,-118.164,-41.504,-37.109,-46.387
1789913205.331730,-83.496,-49.316,-34.668,-26.855
1789913205.335587,-94.238,-54.199,-37.598,-18.555
1789913205.339443,-136.719,-44.434,-36.133,-39.062
1789913205.343300,-116.211,-36.133,-29.297,-25.879
1789913205.347156,-73.730,-36.133,-31.738,0.488
1789913205.351013,-68.848,-39.062,-31.250,1.953
1789913205.354869,-117.188,-41.016,-30.273,-28.320
1789913205.359208,-125.488,-42.969,-32.715,-36.133
1789913205.363065,-87.402,-41.992,-29.297,-13.672
1789913205.366922,-64.941,-45.410,-29.785,-5.859
1789913205.370779,-98.145,-43.457,-27.832,-24.902
1789913205.374636,-129.883,-44.922,-29.785,-41.016
1789913205.378493,-121.582,-63.965,-54.688,-45.410
1789913205.382350,-99.121,-66.406,-64.941,-38.574
1789913205.386207,-105.957,-62.500,-60.059,-48.340
1789913205.390064,-137.207,-64.453,-62.012,-70.801
1789913205.393921,-120.605,-56.152,-53.223,-59.570
1789913205.397778,-87.402,-52.734,-45.898,-36.621
1789913205.401635,-87.891,-55.664,-50.781,-43.457
1789913205.406332,-136.719,-55.664,-52.734,-78.125
1789913205.410190,-138.672,-57.129,-51.270,-70.801
1789913205.414047,-103.027,-53.711,-60.059,-53.223
1789913205.417905,-78.613,-51.270,-62.012,-57.129
1789913205.421763,-117.188,-49.316,-53.711,-78.613
1789913205.425620,-139.648,-39.551,-51.270,-79.102
1789913205.429478,-99.121,-34.668,-48.340,-62.012
1789913205.433336,-68.359,-33.691,-46.387,-51.270
1789913205.437193,-94.727,-29.297,-47.363,-59.082
1789913205.441051,-121.094,-29.785,-42.480,-63.965
1789913205.444908,-92.773,-20.996,-39.551,-54.688
1789913205.448766,-65.430,-24.414,-46.875,-50.293
1789913205.453371,-82.520,-32.715,-45.410,-64.453
1789913205.457229,-117.188,-29.297,-39.551,-79.102
1789913205.461087,-109.375,-39.551,-45.410,-65.430
1789913205.464945,-76.660,-50.781,-47.363,-57.617
1789913205.468803,-70.801,-49.316,-45.898,-55.176
1789913205.472662,-121.582,-44.434,-50.293,-58.594
1789913205.476520,-125.977,-34.180,-48.340,-53.711
1789913205.480378,-79.590,-29.297,-44.922,-45.410
1789913205.484236,-60.059,-27.832,-43.945,-31.250
1789913205.488095,-101.074,-21.484,-43.457,-39.062
1789913205.491953,-115.234,-21.484,-41.016,-51.758
1789913205.495811,-83.496,-24.414,-37.109,-40.039
1789913205.500405,-55.664,-20.020,-32.227,-21.484
1789913205.504264,-69.824,-18.066,-26.367,-34.668
1789913205.508123,-97.168,-20.020,-28.320,-60.059
1789913205.511982,-80.078,-15.625,-28.320,-47.363
1789913205.515841,-52.246,-14.648,-27.344,-25.391
1789913205.519699,-58.105,-20.020,-27.832,-31.250
1789913205.523558,-96.680,-19.531,-33.203,-53.223
1789913205.527417,-86.914,-22.949,-37.598,-44.922
1789913205.531276,-46.387,-23.926,-31.738,-18.555
1789913205.535135,-44.434,-17.578,-35.156,-18.066
1789913205.538993,-89.355,-18.066,-40.527,-30.762
1789913205.542852,-97.656,-21.973,-38.086,-35.645
1789913205.547428,-56.641,-21.484,-34.668,-27.344
1789913205.551287,-24.414,-14.648,-34.180,-17.090
1789913205.555146,-61.523,-16.602,-30.273,-38.086
1789913205.559006,-92.285,-20.996,-22.949,-48.340
1789913205.562865,-60.059,-18.066,-23.438,-38.086
1789913205.566725,-22.949,-17.090,-27.344,-27.832
1789913205.570584,-49.805,-17.578,-27.832,-41.016
1789913205.574443,-93.750,-16.113,-29.785,-70.801
1789913205.578302,-82.031,-12.207,-30.762,-74.707
1789913205.582162,-47.363,-9.277,-26.367,-64.453
1789913205.586021,-53.711,-7.812,-21.484,-50.781
1789913205.589880,-91.309,-11.230,-26.367,-71.289
1789913205.594355,-83.008,-13.672,-29.297,-100.586
1789913205.598215,-52.246,-15.137,-24.902,-83.984
1789913205.602075,-36.621,-20.020,-28.809,-70.801
1789913205.605934,-74.219,-22.949,-32.715,-83.984
1789913205.609794,-85.449,-24.902,-22.461,-72.754
1789913205.613654,-57.617,-24.902,-19.043,-48.340
1789913205.617514,-32.715,-20.508,-19.043,-32.715
1789913205.621374,-57.617,-18.066,-14.648,-45.898
1789913205.625233,-84.473,-21.484,-19.043,-71.289
1789913205.629093,-60.547,-29.297,-24.902,-65.430
1789913205.632953,-22.949,-27.832,-20.020,-47.363
1789913205.636813,-29.297,-18.066,-19.043,-71.777
1789913205.641273,-73.242,-14.160,-19.531,-97.656
1789913205.645133,-63.477,-13.672,-17.578,-82.031
1789913205.648993,-29.785,-11.719,-17.578,-76.660
1789913205.652854,-25.879,-17.578,-18.555,-78.613
1789913205.656714,-75.684,-20.508,-20.508,-93.262
1789913205.660574,-83.496,-18.555,-18.555,-94.238
1789913205.664435,-34.180,-16.113,-17.578,-69.336
1789913205.668295,-11.719,-11.230,-19.043,-40.039
1789913205.672155,-56.641,-8.301,-15.625,-57.129
1789913205.676015,-68.359,-5.859,-9.766,-57.129
1789913205.679876,-34.668,-3.906,-15.625,-40.039
1789913205.683736,-11.719,-2.930,-13.672,-31.738
1789913205.688084,-28.809,2.441,-6.348,-37.109
1789913205.691944,-59.570,5.371,-6.348,-49.316
1789913205.695805,-44.434,2.930,-8.301,-33.691
1789913205.699666,-11.230,-1.953,-13.184,-20.508
1789913205.703526,-11.230,1.953,-11.230,-17.578
1789913205.707387,-56.641,3.906,-13.184,-22.949
1789913205.711247,-59.082,0.977,-19.531,-20.020
1789913205.715108,-15.625,11.230,-18.555,-10.742
1789913205.718969,2.930,14.160,-15.625,-6.348
1789913205.722829,-41.992,10.254,-19.531,-24.902
1789913205.726690,-51.270,9.766,-22.949,-31.738
1789913205.730551,-18.555,13.184,-12.207,-10.742
1789913205.734892,-8.301,17.090,-6.836,-0.977
1789913205.738753,-43.945,12.695,-10.254,-29.297
1789913205.742614,-64.941,12.207,-7.324,-42.969
1789913205.746475,-31.738,22.461,-6.348,-17.578
1789913205.750335,3.418,27.832,-5.371,-1.953
1789913205.754196,-10.254,25.879,0.000,-0.977
1789913205.758057,-50.293,21.973,-5.859,-3.906
1789913205.761919,-35.645,18.555,-6.836,4.883
1789913205.765779,8.301,21.973,0.000,31.738
1789913205.769640,5.371,29.297,1.953,51.758
1789913205.773501,-45.898,32.715,2.441,36.133
1789913205.777362,-41.016,28.809,-1.465,29.785
1789913205.781991,-1.465,27.832,0.977,35.645
1789913205.785853,10.254,26.367,6.836,41.504
1789913205.789714,-34.180,25.391,5.859,29.785
1789913205.793576,-54.199,20.996,-0.977,23.438
1789913205.797437,-27.832,14.160,-3.418,30.273
1789913205.801299,-6.348,15.625,-4.395,35.645
1789913205.805161,-32.227,17.578,-7.324,23.926
1789913205.809022,-58.594,12.207,-2.930,9.277
1789913205.812884,-34.180,10.254,2.930,22.461
1789913205.816745,-3.906,13.672,6.836,50.781
1789913205.820607,-25.391,9.277,1.465,33.691
1789913205.824468,-57.617,4.883,0.977,1.465
1789913205.829042,-27.344,17.090,7.812,34.180
1789913205.832904,14.160,25.391,12.695,60.059
1789913205.836766,9.277,23.926,19.043,51.758
1789913205.840628,-34.668,19.531,22.949,33.203
1789913205.844490,-19.531,26.367,36.133,44.922
1789913205.848352,26.855,45.410,49.316,73.730
1789913205.852215,36.133,45.410,43.945,65.918
1789913205.856076,-6.348,36.621,36.133,48.828
1789913205.859939,-22.461,32.227,34.180,56.641
1789913205.863801,2.441,29.785,29.785,69.336
1789913205.867663,29.297,25.391,22.949,73.242
1789913205.871525,1.953,25.879,20.508,58.594
1789913205.876050,-36.621,27.344,14.648,29.297
1789913205.879912,-14.648,31.738,16.602,39.062
1789913205.883775,24.902,31.250,19.043,57.129
1789913205.887637,14.648,28.320,14.648,37.109
1789913205.891500,-32.227,32.715,16.602,0.977
1789913205.895363,-23.926,31.250,15.137,-0.488
1789913205.899225,18.066,34.668,11.230,13.672
1789913205.903088,25.879,35.645,10.742,22.461
1789913205.906950,-21.484,26.855,14.160,18.555
1789913205.910813,-35.645,24.414,10.254,13.184
1789913205.914675,-3.906,25.879,8.301,25.391
1789913205.918538,5.859,21.973,8.301,32.715
1789913205.923005,-42.969,19.043,2.441,8.789
1789913205.926868,-57.129,20.020,-0.488,-12.695
1789913205.930731,-20.508,22.461,3.906,-1.465
1789913205.934594,4.395,22.949,5.371,12.207
1789913205.938457,-29.297,17.090,-4.883,-9.277
1789913205.942320,-69.336,13.184,-3.418,-25.879
1789913205.946183,-47.852,19.043,0.000,-9.766
1789913205.950046,-8.789,24.414,3.906,12.207
1789913205.953909,-19.043,20.020,0.488,14.160
1789913205.957772,-60.547,19.043,-6.836,-3.418
1789913205.961635,-48.340,23.926,-6.348,2.930
1789913205.965498,-9.766,18.555,-7.324,9.277
1789913205.969897,3.418,22.949,-3.418,6.348
1789913205.973760,-35.156,27.344,-1.465,-8.301
1789913205.977623,-52.246,26.855,-4.883,-10.742
1789913205.981487,-14.648,26.367,-3.906,15.625
1789913205.985350,17.578,34.668,-0.488,23.926
1789913205.989213,-17.090,43.457,0.488,-1.465
1789913205.993077,-42.969,23.438,-6.348,-12.207
1789913205.996940,-8.301,20.020,-3.418,14.160
1789913206.000804,20.508,30.273,4.883,18.066
1789913206.004667,-15.625,30.762,-0.977,-6.348
1789913206.008530,-53.223,31.250,-5.371,-24.414
1789913206.012394,-24.902,32.227,-8.789,-18.555
1789913206.016837,10.742,35.645,-8.301,-5.371
1789913206.020701,10.254,38.086,-2.441,-2.930
1789913206.024565,-34.668,31.250,-5.859,-30.762
1789913206.028428,-29.785,29.785,-8.789,-35.645
1789913206.032292,5.859,27.832,-11.230,-23.438
1789913206.036156,12.207,24.414,-13.672,-28.320
1789913206.040020,-19.043,28.320,-8.301,-43.457
1789913206.043883,-28.809,28.320,-3.418,-41.016
1789913206.047747,-0.488,21.973,-8.301,-38.574
1789913206.051611,28.320,18.066,-11.230,-28.809
1789913206.055475,-14.160,14.160,-7.812,-32.715
1789913206.059339,-41.992,14.160,0.488,-31.738
1789913206.063696,1.465,20.996,7.812,-4.395
1789913206.067560,19.531,28.320,-4.395,-12.207
1789913206.071424,-12.695,25.391,-9.766,-31.250
1789913206.075288,-42.480,27.832,-5.859,-49.805
1789913206.079152,-35.645,31.250,-7.812,-53.711
1789913206.083016,-10.254,15.137,-4.883,-52.246
1789913206.086880,5.859,16.602,3.906,-42.969
1789913206.090744,-42.480,23.438,4.395,-59.082
1789913206.094609,-52.246,13.672,-2.930,-71.289
1789913206.098473,-6.836,12.695,-0.977,-48.340
1789913206.102337,7.324,20.020,0.977,-35.645
1789913206.106201,-29.785,28.809,-6.836,-54.199
1789913206.110477,-36.133,34.180,-6.836,-52.246
1789913206.114342,-10.254,19.043,-7.812,-36.133
1789913206.118206,11.230,10.742,-9.766,-37.109
1789913206.122071,-11.230,11.230,-9.766,-47.852
1789913206.125935,-31.738,11.230,-5.371,-56.152
1789913206.129799,-8.301,14.160,-0.977,-46.875
1789913206.133664,20.996,19.531,-1.465,-31.250
1789913206.137528,11.719,19.531,-7.324,-46.875
1789913206.141392,-29.297,19.531,-6.836,-63.477
1789913206.145257,-22.461,21.973,-0.977,-52.246
1789913206.149121,6.348,27.344,-0.488,-42.480
1789913206.152986,12.207,31.250,-0.488,-42.969
1789913206.157556,-34.180,30.762,0.488,-66.895
1789913206.161421,-41.016,28.809,-2.930,-62.988
1789913206.165286,-0.488,33.691,-6.348,-39.062
1789913206.169151,13.184,31.250,-8.301,-29.785
1789913206.173016,-24.902,16.113,-7.324,-47.363
1789913206.176880,-41.016,15.625,-10.742,-45.410
1789913206.180745,-14.648,17.578,-15.137,-34.668
1789913206.184610,10.742,15.625,-12.695,-30.762
1789913206.188475,-9.766,14.648,-11.230,-38.086
1789913206.192340,-40.527,16.113,-9.277,-55.176
1789913206.196205,-30.273,20.508,-4.883,-46.387
1789913206.200070,1.953,12.695,-8.789,-36.133
1789913206.204623,-0.977,2.930,-14.648,-41.016
1789913206.208488,-53.223,3.906,-13.184,-62.988
1789913206.212353,-45.898,4.883,-7.812,-60.547
1789913206.216218,-8.789,4.883,-2.441,-38.086
1789913206.220084,-5.859,6.348,-3.418,-44.434
1789913206.223949,-55.664,2.930,-4.395,-75.684
1789913206.227815,-59.570,5.371,-5.859,-78.125
1789913206.231680,-13.672,8.789,-7.812,-58.594
1789913206.235545,4.395,5.371,-7.812,-49.805
1789913206.239411,-31.738,7.324,-15.137,-60.059
1789913206.243276,-54.199,12.207,-14.648,-78.613
1789913206.247141,-30.762,15.137,-7.812,-81.543
1789913206.251618,-4.395,16.113,-9.277,-62.988
1789913206.255484,-13.672,15.625,-7.324,-56.641
1789913206.259350,-51.270,8.789,-6.348,-67.871
1789913206.263216,-27.832,8.789,-6.348,-60.547
1789913206.267081,23.926,24.414,-2.930,-44.922
1789913206.270947,17.578,26.855,-3.906,-50.293
1789913206.274813,-37.598,20.996,-0.488,-73.730
1789913206.278679,-43.945,19.531,0.000,-72.754
1789913206.282544,-2.930,25.391,-1.953,-51.758
1789913206.286410,18.066,25.879,1.953,-37.109
1789913206.290276,-20.020,19.531,8.301,-45.410
1789913206.294142,-34.180,21.484,12.207,-59.570
1789913206.298559,-7.324,21.484,8.789,-51.758
1789913206.302425,12.695,18.555,0.488,-46.387
1789913206.306291,-13.184,18.066,-6.836,-62.500
1789913206.310158,-37.109,15.137,-9.277,-76.172
1789913206.314023,-6.836,18.555,-0.977,-64.941
1789913206.317890,35.645,30.273,4.395,-44.434
1789913206.321756,17.090,32.227,3.418,-51.758
1789913206.325622,-40.039,26.367,3.418,-73.730
1789913206.329488,-35.156,20.996,-5.859,-71.777
1789913206.333354,-1.953,15.625,-13.672,-67.871
1789913206.337220,2.930,12.695,-20.508,-66.895
1789913206.341087,-34.668,13.184,-20.996,-69.336
1789913206.345468,-45.410,8.789,-20.508,-76.660
1789913206.349334,-14.648,10.742,-15.137,-68.848
1789913206.353201,10.254,18.555,-10.254,-47.363
1789913206.357067,-18.066,22.949,-5.859,-42.480
1789913206.360934,-27.344,23.926,0.000,-40.527
1789913206.364800,2.930,28.320,1.465,-17.090
1789913206.368667,28.809,31.250,0.488,7.324
1789913206.372533,6.836,20.996,-2.441,-0.977
1789913206.376400,-37.598,22.461,-4.883,-15.137
1789913206.380266,-23.926,20.996,-0.488,-4.395
1789913206.384133,10.254,15.625,0.000,13.672
1789913206.387999,-3.906,10.254,-3.906,10.254
1789913206.392343,-40.527,1.953,-8.789,-10.742
1789913206.396210,-29.297,11.230,-9.277,-21.973
1789913206.400077,-4.395,16.113,-1.953,-1.465
1789913206.403944,6.836,22.949,6.836,16.113
1789913206.407810,-16.113,30.273,10.254,-15.625
1789913206.411677,-25.879,26.367,9.766,-24.902
1789913206.415544,-9.277,19.043,4.395,-7.812
1789913206.419411,1.953,15.137,-1.465,14.160
1789913206.423278,-39.551,16.113,-2.441,-0.488
1789913206.427144,-63.965,18.066,-4.395,-19.531
1789913206.431011,-25.391,19.043,-2.441,17.578
1789913206.434878,7.324,26.367,0.977,40.039
1789913206.439176,-18.066,31.738,-0.488,34.180
1789913206.443043,-63.477,27.832,-0.977,24.902
1789913206.446910,-50.781,22.949,0.000,18.555
1789913206.450778,-12.207,18.066,3.906,25.879
1789913206.454644,-17.578,11.230,1.953,28.320
1789913206.458512,-66.895,6.348,-4.395,4.883
1789913206.462379,-64.941,5.371,-2.930,10.254
1789913206.466246,-30.762,8.301,-5.859,25.879
1789913206.470113,-9.277,10.254,-5.859,29.785
1789913206.473980,-40.527,10.742,-6.836,3.418
1789913206.477847,-63.477,15.625,-11.719,-11.230
1789913206.481714,-29.785,19.531,-11.230,12.695
1789913206.485994,-0.488,16.602,-14.160,27.832
1789913206.489862,-27.832,15.625,-14.160,13.672
1789913206.493729,-48.340,18.555,-11.719,-5.371
1789913206.497597,-19.043,22.949,-12.207,-2.930
1789913206.501464,8.789,24.414,-15.137,2.930
1789913206.505331,-7.812,18.066,-17.090,-3.418
1789913206.509198,-44.922,20.020,-23.926,-19.531
1789913206.513066,-26.855,23.438,-24.902,-15.137
1789913206.516933,14.648,29.297,-21.484,2.930
1789913206.520801,13.184,32.715,-21.484,15.625
1789913206.524668,-38.086,27.344,-21.973,-12.695
1789913206.528535,-48.828,28.809,-19.043,-31.738
1789913206.533127,-8.301,31.738,-16.602,-11.230
1789913206.536995,5.371,30.762,-18.066,0.488
1789913206.540863,-44.434,30.273,-17.578,-27.832
1789913206.544730,-64.941,27.344,-13.184,-41.504
1789913206.548598,-38.086,21.973,-16.602,-25.391
1789913206.552466,-14.160,21.973,-25.391,-9.277
1789913206.556334,-40.527,21.973,-28.809,-22.949
1789913206.560202,-70.801,15.137,-27.832,-40.039
1789913206.564070,-52.246,13.184,-26.367,-30.273
1789913206.567937,-26.367,16.602,-20.996,-10.254
1789913206.571805,-34.180,16.113,-17.090,-6.348
1789913206.575673,-71.289,14.160,-17.578,-31.738
1789913206.580153,-60.059,14.648,-15.137,-40.527
1789913206.584021,-19.531,17.578,-18.555,-35.645
1789913206.587889,-5.371,27.344,-17.090,-27.832
1789913206.591757,-40.527,32.715,-12.695,-33.691
1789913206.595625,-45.410,28.320,-15.625,-40.527
1789913206.599494,-10.254,28.320,-21.484,-34.668
1789913206.603362,8.789,21.484,-27.832,-25.879
1789913206.607230,-37.109,12.695,-33.691,-45.410
1789913206.611098,-60.547,19.531,-28.809,-62.500
1789913206.614967,-25.391,23.926,-22.949,-43.945
1789913206.618835,-0.488,35.645,-17.578,-39.062
1789913206.622703,-25.879,39.551,-22.461,-49.316
1789913206.627128,-59.570,20.508,-30.762,-62.500
1789913206.630996,-41.016,19.531,-30.762,-65.918
1789913206.634865,-2.930,21.973,-31.250,-46.387
1789913206.638733,-9.766,20.996,-35.156,-45.898
1789913206.642602,-61.523,16.113,-35.645,-69.336
1789913206.646471,-53.223,11.230,-35.156,-56.641
1789913206.650339,-20.020,18.066,-35.645,-40.527
1789913206.654208,-11.230,16.113,-36.133,-37.598
1789913206.658076,-46.875,11.719,-32.715,-44.922
1789913206.661945,-66.406,16.602,-25.391,-59.082
1789913206.665813,-41.016,11.230,-30.762,-52.734
1789913206.669682,-9.766,4.395,-34.180,-38.086
1789913206.674073,-44.434,3.906,-30.762,-56.152
1789913206.677942,-78.125,6.348,-29.297,-77.637
1789913206.681811,-52.246,5.859,-32.715,-67.871
1789913206.685680,-27.832,0.000,-40.039,-61.035
1789913206.689549,-43.945,-2.441,-40.039,-67.383
1789913206.693418,-75.684,-1.465,-36.133,-83.496
1789913206.697287,-57.617,-1.953,-36.133,-82.520
1789913206.701156,-13.672,-3.906,-41.504,-60.547
1789913206.705025,-9.277,-2.441,-47.852,-54.688
1789913206.708894,-58.594,0.000,-47.852,-78.125
1789913206.712762,-51.758,-1.465,-47.363,-79.102
1789913206.716631,-17.090,-4.883,-44.922,-53.223
1789913206.720968,-5.371,-0.488,-45.898,-37.598
1789913206.724837,-40.527,6.348,-42.969,-51.758
1789913206.728706,-63.965,1.953,-37.598,-54.199
1789913206.732575,-28.320,3.418,-41.016,-34.668
1789913206.736444,1.465,5.371,-45.898,-28.320
1789913206.740314,-37.598,-0.977,-41.504,-48.340
1789913206.744183,-79.590,-6.348,-36.621,-62.988
1789913206.748052,-59.570,-12.207,-37.598,-42.480
1789913206.751921,-37.109,-12.207,-41.992,-33.691
1789913206.755790,-57.129,-13.672,-45.898,-48.828
1789913206.759660,-88.379,-16.602,-45.898,-77.148
1789913206.763529,-72.266,-17.578,-46.875,-79.590
1789913206.767833,-48.340,-22.949,-50.293,-55.664
1789913206.771703,-50.293,-21.484,-48.828,-44.922
1789913206.775573,-83.984,-16.602,-41.504,-53.711
1789913206.779442,-85.449,-15.625,-44.922,-54.688
1789913206.783311,-47.852,-12.695,-42.480,-44.922
1789913206.787181,-19.043,-13.672,-34.668,-35.156
1789913206.791050,-51.758,-12.695,-36.133,-53.223
1789913206.794920,-81.543,-11.230,-42.480,-71.289
1789913206.798789,-56.152,-11.230,-42.969,-70.801
1789913206.802659,-20.020,-11.230,-41.992,-66.895
1789913206.806528,-22.461,-9.766,-40.527,-70.801
1789913206.810398,-44.922,-5.371,-38.086,-82.520
1789913206.814703,-23.926,0.000,-36.621,-72.266
1789913206.818573,16.113,-2.441,-37.598,-51.758
1789913206.822443,2.441,-5.859,-39.062,-52.246
1789913206.826312,-55.176,-3.418,-38.574,-80.566
1789913206.830182,-58.594,-4.883,-42.969,-89.844
1789913206.834052,-23.438,-7.324,-50.293,-78.613
1789913206.837921,-4.883,-0.977,-45.410,-64.453
1789913206.841791,-44.922,4.883,-40.039,-79.102
1789913206.845661,-60.059,-1.953,-47.363,-95.703
1789913206.849531,-30.273,-6.348,-56.641,-91.797
1789913206.853400,-10.254,-2.930,-57.129,-79.102
1789913206.857270,-41.504,0.000,-56.152,-90.332
1789913206.861493,-67.871,-5.859,-55.176,-99.609
1789913206.865363,-41.016,-18.555,-52.246,-83.008
1789913206.869233,-11.719,-25.879,-52.246,-69.336
1789913206.873103,-29.297,-25.879,-54.199,-74.707
1789913206.876973,-70.801,-20.996,-51.758,-90.820
1789913206.880843,-61.523,-20.020,-43.945,-79.590
1789913206.884713,-32.227,-20.020,-43.945,-66.895
1789913206.888583,-33.691,-19.531,-53.223,-77.148
1789913206.892453,-73.730,-23.438,-49.316,-98.145
1789913206.896323,-73.730,-21.973,-46.387,-100.098
1789913206.900193,-40.527,-20.508,-54.199,-81.055
1789913206.904063,-18.066,-24.414,-60.059,-76.660
1789913206.908539,-54.688,-26.855,-59.082,-93.750
1789913206.912409,-73.730,-25.391,-60.547,-92.773
1789913206.916279,-40.527,-23.438,-60.547,-91.797
1789913206.920150,-11.230,-26.367,-56.152,-90.820
1789913206.924020,-40.527,-24.902,-59.570,-96.680
1789913206.927890,-64.941,-21.484,-64.941,-113.770
1789913206.931761,-33.691,-19.531,-63.965,-119.141
1789913206.935631,-12.207,-19.531,-64.941,-107.910
1789913206.939501,-27.344,-21.973,-63.965,-93.750
1789913206.943372,-64.941,-21.484,-60.059,-105.469
1789913206.947242,-55.176,-12.207,-60.059,-111.328
1789913206.951112,-16.602,-0.977,-50.781,-86.426
1789913206.955601,-11.719,5.859,-48.828,-84.473
1789913206.959471,-48.340,5.859,-49.316,-100.586
1789913206.963342,-57.617,-4.883,-52.734,-101.074
1789913206.967213,-26.855,-9.766,-61.035,-88.867
1789913206.971084,3.418,-7.812,-58.105,-75.195
1789913206.974954,-35.645,-9.277,-51.758,-88.379
1789913206.978825,-64.453,-6.836,-50.781,-87.891
1789913206.982696,-36.133,-7.324,-55.176,-64.453
1789913206.986566,-5.371,-9.766,-59.570,-41.992
1789913206.990437,-26.367,-8.301,-61.523,-38.574
1789913206.994308,-65.918,-11.719,-66.406,-51.758
1789913206.998178,-45.410,-11.719,-61.523,-31.250
1789913207.002586,-10.254,-6.836,-55.176,0.000
1789913207.006457,-20.508,-6.836,-57.617,-5.859
1789913207.010328,-67.383,-8.789,-58.105,-36.621
1789913207.014199,-55.176,-2.930,-51.758,-36.621
1789913207.018070,-11.230,-0.977,-53.711,-26.367
1789913207.021941,-22.461,-15.137,-67.383,-45.898
1789913207.025812,-69.824,-22.461,-77.148,-81.055
1789913207.029683,-79.102,-30.273,-79.590,-85.938
1789913207.033555,-43.457,-36.621,-76.660,-61.035
1789913207.037426,-14.160,-21.973,-75.195,-55.176
1789913207.041296,-58.105,-16.602,-75.195,-77.637
1789913207.045167,-93.750,-20.020,-74.219,-91.309
1789913207.049508,-58.105,-10.254,-66.406,-83.496
1789913207.053379,-17.090,-6.348,-62.988,-64.453
1789913207.057250,-37.109,-15.625,-73.242,-69.824
1789913207.061121,-78.613,-19.531,-80.566,-97.168
1789913207.064993,-63.965,-13.672,-70.312,-88.379
1789913207.068864,-37.109,-9.277,-63.965,-54.199
1789913207.072735,-35.645,3.906,-58.594,-35.156
1789913207.076607,-65.430,13.184,-47.852,-36.621
1789913207.080478,-61.035,15.137,-48.340,-22.949
1789913207.084349,-24.902,18.555,-50.781,-13.672
1789913207.088221,-6.348,16.113,-48.828,-7.324
1789913207.092092,-41.504,15.625,-45.410,-17.090
1789913207.096394,-56.641,18.066,-43.457,-37.109
1789913207.100265,-26.367,17.090,-39.551,-28.320
1789913207.104137,3.418,19.043,-34.668,-15.137
1789913207.108008,-21.484,18.555,-36.621,-34.180
1789913207.111880,-52.734,16.113,-40.039,-54.199
1789913207.115751,-32.715,19.531,-38.574,-45.898
1789913207.119623,4.883,19.043,-38.086,-31.738
1789913207.123494,0.000,11.719,-45.898,-40.039
1789913207.127366,-58.105,15.625,-47.363,-71.289
1789913207.131238,-60.547,14.160,-40.527,-75.684
1789913207.135109,-18.066,11.230,-40.039,-67.871
1789913207.138981,-9.766,18.066,-41.016,-67.871
1789913207.143244,-50.293,17.090,-45.898,-81.543
1789913207.147115,-42.969,20.996,-40.527,-81.055
1789913207.150987,-0.488,26.367,-31.738,-56.641
1789913207.154859,5.859,26.367,-34.668,-38.086
1789913207.158731,-33.691,30.762,-37.109,-52.734
1789913207.162602,-53.711,31.250,-34.180,-61.523
1789913207.166474,-20.020,35.156,-30.273,-42.480
1789913207.170346,8.301,42.480,-31.250,-32.227
1789913207.174218,-24.414,37.598,-30.762,-48.340
1789913207.178090,-67.383,41.016,-31.250,-61.523
1789913207.181961,-50.781,53.223,-36.133,-60.547
1789913207.185833,-27.344,41.504,-38.086,-49.805
1789913207.190073,-31.738,31.738,-36.621,-49.316
1789913207.193945,-68.359,36.133,-39.551,-70.801
1789913207.197817,-65.430,34.668,-44.922,-78.613
1789913207.201689,-18.555,39.062,-40.527,-65.430
1789913207.205561,-13.672,40.039,-39.062,-60.547
1789913207.209433,-56.152,36.133,-40.039,-77.148
1789913207.213305,-63.477,36.133,-32.715,-64.453
1789913207.217177,-40.039,45.410,-35.156,-60.059
1789913207.221049,-15.625,54.199,-34.668,-52.246
1789913207.224921,-41.992,47.363,-26.855,-52.246
1789913207.228793,-62.988,39.551,-34.180,-81.543
1789913207.232665,-41.992,40.039,-43.457,-88.867
1789913207.236851,-26.855,31.250,-45.410,-73.242
1789913207.240724,-54.688,27.344,-47.363,-80.566
1789913207.244596,-86.914,26.855,-45.898,-101.562
1789913207.248468,-61.035,25.391,-42.969,-87.891
1789913207.252340,-23.438,27.832,-47.363,-73.730
1789913207.256212,-30.762,21.973,-55.176,-77.637
1789913207.260085,-86.914,19.531,-56.152,-94.727
1789913207.263957,-86.426,25.879,-45.898,-88.867
1789913207.267829,-42.480,19.043,-49.805,-78.613
1789913207.271701,-19.043,15.137,-52.246,-71.289
1789913207.275573,-52.246,23.926,-45.410,-85.938
1789913207.279445,-63.965,26.367,-47.363,-106.934
1789913207.283881,-27.344,24.414,-51.270,-94.238
1789913207.287754,-2.441,20.996,-50.293,-77.637
1789913207.291626,-41.016,21.973,-49.805,-102.539
1789913207.295499,-76.660,19.043,-54.688,-133.301
1789913207.299371,-51.758,17.090,-54.688,-120.117
1789913207.303244,-20.020,23.438,-55.664,-95.703
1789913207.307116,-34.180,21.484,-52.734,-102.539
1789913207.310989,-67.383,29.785,-49.805,-119.141
1789913207.314861,-45.898,38.574,-48.828,-101.562
1789913207.318734,-10.254,20.508,-50.781,-76.660
1789913207.322606,-14.648,19.531,-56.641,-82.520
1789913207.326479,-55.176,24.902,-48.828,-99.121
1789913207.330884,-56.641,19.531,-47.363,-101.074
1789913207.334757,-22.461,32.227,-43.457,-88.867
1789913207.338629,0.488,46.875,-31.250,-68.359
1789913207.342502,-40.039,43.945,-27.832,-83.984
1789913207.346375,-66.895,38.574,-26.855,-100.098
1789913207.350248,-41.504,34.668,-27.344,-81.543
1789913207.354121,-18.555,28.320,-32.715,-72.754
1789913207.357994,-23.926,32.227,-28.320,-81.055
1789913207.361866,-41.504,33.203,-24.902,-79.590
1789913207.365739,-41.504,31.250,-35.645,-70.801
1789913207.369612,-6.836,39.551,-34.668,-59.570
1789913207.373485,-12.695,36.133,-27.344,-62.012
1789913207.377862,-58.105,35.156,-33.691,-92.285
1789913207.381736,-43.945,40.039,-34.180,-94.727
1789913207.385609,-4.883,38.086,-31.738,-82.031
1789913207.389482,4.883,40.527,-35.645,-83.008
1789913207.393355,-44.434,53.223,-35.645,-96.680
1789913207.397228,-55.664,57.129,-37.598,-98.633
1789913207.401101,-16.113,57.129,-41.016,-92.773
1789913207.404974,-6.348,62.988,-45.898,-89.355
1789913207.408847,-47.852,68.359,-46.387,-90.332
1789913207.412720,-59.082,68.359,-47.363,-109.375
1789913207.416593,-26.855,57.617,-51.270,-109.863
1789913207.420466,1.465,52.734,-49.805,-86.426
1789913207.424785,-19.531,60.059,-48.340,-88.379
1789913207.428658,-55.664,54.688,-51.270,-111.816
1789913207.432532,-28.320,44.434,-53.711,-109.863
1789913207.436405,11.719,56.152,-48.828,-84.961
1789913207.440278,-0.977,57.129,-45.898,-81.543
1789913207.444152,-46.875,41.992,-50.781,-102.051
1789913207.448025,-36.621,39.062,-49.805,-97.656
1789913207.451898,-9.766,36.133,-44.434,-76.172
1789913207.455772,-4.395,37.109,-48.340,-76.660
1789913207.459645,-41.016,29.297,-49.316,-107.422
1789913207.463518,-62.012,20.996,-48.340,-111.328
1789913207.467392,-20.996,25.879,-48.828,-81.055
1789913207.471673,8.301,35.645,-41.992,-56.152
1789913207.475546,-24.902,32.715,-37.109,-68.848
1789913207.479420,-48.340,22.949,-42.969,-81.543
1789913207.483294,-28.809,16.602,-51.758,-71.777
1789913207.487167,-2.441,16.113,-50.781,-55.664
1789913207.491041,-16.602,34.668,-36.133,-45.410
1789913207.494914,-64.453,31.738,-26.855,-77.148
1789913207.498788,-54.199,21.484,-37.109,-72.754
1789913207.502661,-15.137,31.250,-41.992,-54.688
1789913207.506535,-8.789,35.156,-34.668,-66.406
1789913207.510409,-44.922,37.598,-18.555,-74.707
1789913207.514282,-41.504,31.738,-14.160,-67.383
1789913207.518522,-7.812,26.367,-40.039,-75.195
1789913207.522395,8.301,34.668,-47.852,-69.336
1789913207.526269,-33.691,38.086,-36.133,-82.520
1789913207.530143,-45.410,41.016,-22.461,-90.332
1789913207.534017,-10.254,37.598,-16.602,-80.078
1789913207.537890,0.977,28.809,-22.461,-62.012
1789913207.541764,-22.461,21.973,-21.973,-56.641
1789913207.545638,-46.387,25.879,-24.902,-75.684
1789913207.549512,-21.484,31.250,-18.066,-64.453
1789913207.553385,15.137,26.367,-5.859,-37.109
1789913207.557259,-12.207,36.621,-11.719,-43.457
1789913207.561133,-55.664,39.062,-2.441,-74.707
1789913207.565347,-33.203,19.043,-3.906,-72.754
1789913207.569221,-11.230,20.020,-23.438,-51.758
1789913207.573095,-18.555,21.973,-24.414,-43.457
1789913207.576969,-45.898,22.949,-17.090,-54.199
1789913207.580843,-40.527,24.414,-14.648,-50.781
1789913207.584717,-10.254,21.973,-9.766,-36.133
1789913207.588591,14.648,25.391,-1.953,-25.391
1789913207.592465,-18.555,25.879,-3.906,-43.457
1789913207.596339,-80.078,6.836,-16.602,-54.688
1789913207.600213,-56.152,-4.395,-18.555,-40.527
1789913207.604087,13.672,5.371,-12.695,-20.508
1789913207.607961,-0.488,7.812,-9.766,-18.066
1789913207.612129,-55.176,3.418,-7.324,-33.691
1789913207.616004,-51.270,-5.371,-15.625,-39.551
1789913207.619878,-11.230,-3.418,-31.250,-33.691
1789913207.623752,-12.207,-2.441,-32.715,-15.625
1789913207.627626,-53.223,-12.695,-24.414,-35.645
1789913207.631500,-51.758,-13.672,-26.367,-43.457
1789913207.635374,-20.508,-17.578,-37.598,-15.137
1789913207.639248,-10.742,-23.926,-27.344,-17.578
1789913207.643122,-51.270,-24.414,-20.508,-35.156
1789913207.646997,-67.871,-26.855,-29.297,-7.324
1789913207.650871,-32.715,-27.832,-27.832,37.109
1789913207.654745,-18.066,-21.973,-25.391,54.688
1789913207.659155,-45.410,-17.090,-26.367,21.484
1789913207.663029,-40.527,-5.859,-21.973,15.137
1789913207.666904,-32.227,0.488,-31.250,43.945
1789913207.670778,-27.344,-6.348,-35.645,25.391
1789913207.674653,-31.738,-11.230,-36.621,20.508
1789913207.678527,-62.500,-5.371,-41.016,36.621
1789913207.682401,-61.035,-4.395,-41.504,83.008
1789913207.686276,-29.785,-0.488,-42.480,81.055
1789913207.690150,-23.926,1.465,-35.645,64.453
1789913207.694025,-67.871,9.277,-40.039,88.867
1789913207.697899,-68.359,17.090,-41.992,109.863
1789913207.701773,-27.832,14.648,-34.180,160.645
1789913207.706157,-13.184,12.695,-37.598,207.031
1789913207.710032,-41.992,18.555,-43.945,184.082
1789913207.713907,-49.805,25.879,-45.410,169.922
1789913207.717781,-27.344,27.832,-49.316,205.566
1789913207.721656,1.953,28.320,-55.176,236.816
1789913207.725530,-15.625,30.762,-62.012,259.766
1789913207.729405,-50.781,34.180,-70.801,257.324
1789913207.733280,-25.391,41.016,-70.801,274.414
1789913207.737154,20.508,47.363,-61.523,330.566
1789913207.741029,22.461,58.105,-56.641,348.145
1789913207.744904,-8.789,62.012,-56.641,303.223
1789913207.748779,-11.230,59.570,-58.594,305.664
1789913207.753112,12.207,60.547,-62.012,335.449
1789913207.756987,31.250,62.500,-62.012,337.402
1789913207.760862,-10.742,56.641,-62.500,303.223
1789913207.764737,-30.273,39.062,-63.477,287.598
1789913207.768612,16.602,41.504,-63.477,294.434
1789913207.772487,33.203,48.828,-65.918,304.688
1789913207.776362,-14.160,51.758,-64.941,297.852
1789913207.780237,-31.738,61.523,-55.176,292.480
1789913207.784112,5.859,63.477,-50.293,316.406
1789913207.787987,29.785,61.035,-56.152,309.082
1789913207.791862,1.465,57.617,-57.617,283.691
1789913207.795737,-27.344,56.641,-52.734,269.043
1789913207.800097,-1.953,62.500,-48.828,270.996
1789913207.803972,24.902,63.477,-43.945,270.996
1789913207.807847,2.441,61.523,-37.109,245.605
1789913207.811722,-43.457,54.688,-38.086,213.379
1789913207.815597,-37.598,47.363,-44.434,208.008
1789913207.819473,-8.301,49.805,-40.527,217.773
1789913207.823348,-1.465,43.945,-42.969,200.195
1789913207.827223,-45.410,28.809,-45.898,163.086
1789913207.831098,-64.941,25.879,-45.410,139.160
1789913207.834973,-31.250,28.809,-37.598,137.207
1789913207.838849,-6.348,25.391,-30.762,150.879
1789913207.842724,-52.246,13.184,-33.203,150.879
1789913207.847004,-85.938,6.348,-35.156,145.996
1789913207.850880,-51.270,7.812,-29.297,140.625
1789913207.854755,-17.090,3.906,-25.879,144.531
1789913207.858631,-31.250,2.930,-26.367,121.582
1789913207.862506,-88.379,9.277,-28.809,85.449
1789913207.866381,-89.844,11.230,-35.156,51.758
1789913207.870257,-40.039,4.883,-30.762,17.090
1789913207.874132,-27.344,2.930,-26.367,16.602
1789913207.878008,-82.520,10.742,-35.156,-11.230
1789913207.881883,-101.562,-8.301,-37.109,-16.113
1789913207.885758,-72.266,-17.578,-34.180,-13.184
1789913207.889634,-59.082,-3.906,-29.785,-23.926
1789913207.893854,-88.379,0.000,-32.227,-55.664
1789913207.897730,-104.980,-7.812,-32.715,-75.684
1789913207.901606,-85.449,-4.883,-26.855,-57.129
1789913207.905481,-47.363,5.371,-27.832,-37.598
1789913207.909357,-59.570,9.766,-24.902,-70.312
1789913207.913232,-100.098,1.465,-21.484,-118.652
1789913207.917108,-87.891,-3.906,-20.996,-114.258
1789913207.920984,-43.945,4.883,-24.902,-82.031
1789913207.924859,-46.875,9.277,-19.531,-90.332
1789913207.928735,-98.145,6.836,-15.137,-134.277
1789913207.932610,-83.496,11.719,-17.090,-132.812
1789913207.936486,-53.223,14.160,-15.625,-124.512
1789913207.940673,-48.340,20.996,-12.207,-123.535
1789913207.944549,-69.336,31.250,-9.277,-128.906
1789913207.948424,-70.312,10.742,-5.859,-115.234
1789913207.952300,-31.250,5.859,-10.254,-104.492
1789913207.956176,-0.488,20.020,-12.695,-102.539
1789913207.960052,-38.574,22.949,-7.324,-116.699
1789913207.963928,-63.965,20.020,-4.883,-130.859
1789913207.967803,-34.668,14.648,-7.812,-106.934
1789913207.971679,-15.625,6.348,-17.090,-94.727
1789913207.975555,-43.457,4.395,-20.020,-97.168
1789913207.979430,-62.988,13.672,-15.625,-113.770
1789913207.983306,-42.480,15.625,-13.184,-120.605
1789913207.987453,-22.461,13.184,-6.836,-104.004
1789913207.991329,-30.762,14.648,-0.488,-98.145
1789913207.995205,-72.754,17.578,-6.348,-96.680
1789913207.999081,-60.547,10.742,-5.859,-79.590
1789913208.002957,-37.598,11.230,-9.277,-69.336
1789913208.006833,-47.852,17.090,-20.996,-74.219
1789913208.010709,-90.820,7.812,-30.762,-108.398
1789913208.014584,-111.816,1.953,-29.785,-121.582
1789913208.018460,-79.590,9.277,-30.273,-124.023
1789913208.022336,-48.828,7.324,-34.180,-125.488
1789913208.026212,-77.637,11.230,-27.832,-137.695
1789913208.030088,-104.004,28.320,-20.020,-150.879
1789913208.034475,-90.332,5.371,-26.367,-140.137
1789913208.038351,-58.594,-4.883,-27.344,-121.582
1789913208.042227,-66.895,19.043,-23.438,-127.441
1789913208.046103,-100.098,20.508,-27.832,-139.648
1789913208.049979,-78.613,13.184,-28.809,-121.582
1789913208.053855,-36.621,12.207,-24.414,-98.145
1789913208.057731,-39.551,15.137,-23.438,-85.449
1789913208.061608,-90.820,7.812,-30.762,-115.234
1789913208.065484,-90.820,-3.418,-39.551,-135.742
1789913208.069360,-53.711,-1.465,-44.922,-95.215
1789913208.073236,-53.223,-0.488,-54.688,-75.684
1789913208.077112,-89.355,-6.348,-54.688,-114.746
1789913208.081459,-103.027,-3.906,-46.875,-129.395
1789913208.085335,-80.078,6.348,-42.969,-100.586
1789913208.089212,-50.293,5.371,-43.457,-82.520
1789913208.093088,-77.637,-6.348,-43.457,-103.027
1789913208.096965,-112.305,-12.695,-52.734,-128.418
1789913208.100841,-80.566,-7.812,-56.152,-125.488
1789913208.104717,-42.969,-1.953,-52.734,-113.770
1789913208.108594,-54.199,1.953,-52.734,-105.469
1789913208.112470,-84.961,3.906,-48.340,-96.191
1789913208.116347,-67.383,6.836,-45.410,-91.309
1789913208.120223,-33.203,10.254,-46.875,-113.281
1789913208.124100,-43.945,5.371,-46.875,-125.488
1789913208.128424,0.000,-4.883,-48.828,-151.855
1789913208.132300,0.000,-3.418,-52.246,-162.598
1789913208.136177,0.000,2.930,-51.758,-157.715
1789913208.140054,0.000,3.906,-56.641,-153.809
1789913208.143930,0.000,-1.953,-56.152,-168.457
1789913208.147807,0.000,-7.324,-48.828,-186.523
1789913208.151684,0.000,-6.348,-58.105,-170.898
1789913208.155560,0.000,-10.254,-61.035,-147.949
1789913208.159437,0.000,-13.184,-47.363,-156.738
1789913208.163313,0.000,-6.836,-55.176,-184.082
1789913208.167190,0.000,-10.254,-62.500,-170.898
1789913208.171067,0.000,-21.484,-65.918,-138.184
1789913208.175334,-68.848,-22.461,-67.871,-109.375
1789913208.179211,-109.863,3.906,-56.152,-122.070
1789913208.183088,-102.539,10.742,-60.059,-122.070
1789913208.186965,-67.383,12.207,-55.176,-66.895
1789913208.190841,-59.082,18.066,-39.062,-54.199
1789913208.194718,-84.961,13.672,-42.969,-103.516
1789913208.198595,-94.727,8.789,-48.340,-104.492
1789913208.202472,-78.613,5.859,-51.758,-71.777
1789913208.206349,-47.852,14.160,-50.293,-35.645
1789913208.210226,-79.590,12.207,-52.734,-27.832
1789913208.214103,-99.609,2.441,-49.316,-31.738
1789913208.217979,-63.477,-0.488,-46.387,-23.438
1789913208.222260,-45.898,-1.465,-61.523,-6.836
1789913208.226137,-86.914,-7.324,-57.617,-3.906
1789913208.230014,-127.441,-8.301,-49.316,-11.230
1789913208.233891,-107.422,-4.883,-48.828,33.203
1789913208.237768,-67.383,-5.859,-50.293,52.246
1789913208.241645,-77.637,-7.812,-59.570,28.809
1789913208.245522,-124.023,-15.137,-62.500,13.184
1789913208.249399,-109.375,-17.090,-59.082,41.504
1789913208.253276,-71.289,-17.090,-58.105,63.965
1789913208.257153,-65.430,-28.320,-60.059,55.664
1789913208.261030,-105.469,-33.691,-61.035,45.410
1789913208.264907,-119.629,-39.062,-63.965,49.316
1789913208.269123,-82.031,-43.457,-61.523,74.707
1789913208.273000,-61.523,-31.250,-55.664,103.516
1789913208.276877,-103.516,-28.320,-58.105,86.426
1789913208.280755,-129.883,-33.203,-58.105,70.312
1789913208.284632,-107.422,-36.133,-62.500,95.215
1789913208.288509,-86.914,-45.898,-68.359,137.207
1789913208.292386,-99.609,-52.734,-70.312,137.207
1789913208.296263,-125.488,-47.363,-66.406,100.586
1789913208.300141,-114.746,-41.992,-64.453,123.535
1789913208.304018,-88.379,-44.922,-69.336,157.227
1789913208.307895,-97.656,-57.129,-72.754,145.508
1789913208.311772,-145.996,-61.035,-77.148,122.070
1789913208.315948,-148.438,-59.570,-79.102,127.441
1789913208.319826,-114.746,-66.895,-81.055,158.691
1789913208.323703,-92.285,-72.754,-80.078,178.223
1789913208.327580,-135.742,-77.637,-80.078,153.809
1789913208.331458,-156.250,-83.984,-80.078,151.367
1789913208.335335,-140.137,-89.844,-83.496,174.316
1789913208.339212,-127.930,-90.332,-84.961,172.852
1789913208.343090,-144.531,-90.332,-79.590,136.230
1789913208.346967,-161.621,-88.867,-78.125,116.699
1789913208.350844,-145.508,-87.402,-95.215,129.883
1789913208.354722,-127.930,-87.402,-95.703,134.277
1789913208.358599,-137.207,-88.379,-87.402,102.539
1789913208.362740,-165.527,-87.402,-88.379,59.082
1789913208.366618,-150.879,-80.566,-78.613,61.035
1789913208.370495,-120.605,-80.078,-76.172,73.242
1789913208.374373,-119.629,-83.984,-85.449,55.176
1789913208.378250,-162.598,-84.473,-88.867,6.836
1789913208.382128,-160.645,-85.938,-89.355,17.090
1789913208.386005,-132.324,-88.867,-93.262,49.805
1789913208.389883,-117.676,-83.008,-101.074,34.180
1789913208.393760,-155.273,-83.984,-100.098,-4.395
1789913208.397638,-189.453,-91.309,-98.145,-8.301
1789913208.401515,-155.762,-86.914,-96.191,0.000
1789913208.405393,-129.395,-87.402,-95.215,-2.441
1789913208.409750,-153.809,-90.332,-97.656,3.418
1789913208.413628,-186.523,-86.914,-94.727,-22.461
1789913208.417506,-177.246,-83.008,-102.539,-16.602
1789913208.421384,-144.531,-86.914,-105.469,3.418
1789913208.425261,-148.438,-86.426,-101.562,-7.812
1789913208.429139,-196.289,-85.449,-105.469,-11.230
1789913208.433017,-202.148,-90.820,-110.352,-1.465
1789913208.436894,-169.922,-91.309,-108.398,-20.508
1789913208.440772,-152.344,-88.867,-106.934,-0.977
1789913208.444650,-201.660,-92.285,-108.398,-3.906
1789913208.448528,-216.797,-90.332,-112.793,-31.738
1789913208.452405,-181.641,-87.891,-114.258,-17.578
1789913208.456723,-166.504,-91.309,-112.793,-2.441
1789913208.460601,-198.730,-87.891,-113.770,-23.438
1789913208.464479,-215.820,-86.914,-114.746,-53.223
1789913208.468357,-192.383,-89.844,-114.746,-32.715
1789913208.472235,-165.039,-92.773,-123.535,-6.348
1789913208.476113,-181.641,-95.215,-118.652,-18.066
1789913208.479991,-230.957,-96.191,-115.234,-53.711
1789913208.483869,-221.191,-95.703,-125.488,-48.340
1789913208.487747,-187.500,-99.121,-125.977,-25.879
1789913208.491625,-185.547,-96.191,-127.930,-37.109
1789913208.495503,-233.398,-97.656,-131.836,-78.125
1789913208.499381,-236.328,-99.609,-129.883,-80.078
1789913208.503660,-181.152,-95.703,-125.000,-43.945
1789913208.507538,-166.504,-96.680,-123.047,-33.203
1789913208.511416,-220.703,-107.910,-124.512,-47.363
1789913208.515294,-234.863,-112.793,-128.906,-59.570
1789913208.519172,-204.590,-111.328,-123.047,-45.898
1789913208.523050,-181.152,-112.793,-123.535,-6.836
1789913208.526928,-202.148,-110.352,-122.559,0.488
1789913208.530807,-240.234,-113.281,-116.211,-8.301
1789913208.534685,-213.379,-115.234,-118.164,-13.672
1789913208.538563,-170.410,-108.398,-125.977,-0.977
1789913208.542441,-170.410,-107.910,-124.512,0.488
1789913208.546319,-204.102,-110.352,-118.652,-25.879
1789913208.550571,-195.801,-113.281,-121.582,-24.902
1789913208.554449,-148.926,-111.816,-125.977,-9.766
1789913208.558327,-152.344,-107.910,-117.188,-17.578
1789913208.562206,-203.613,-116.699,-116.211,-52.246
1789913208.566084,-199.219,-123.535,-121.582,-67.871
1789913208.569962,-154.785,-120.117,-122.559,-63.965
1789913208.573841,-149.902,-118.652,-121.094,-48.828
1789913208.577719,-188.965,-120.605,-123.535,-62.012
1789913208.581597,-195.801,-115.723,-126.953,-77.637
1789913208.585475,-166.504,-106.934,-125.977,-57.129
1789913208.589354,-134.766,-105.957,-125.977,-19.531
1789913208.593232,-157.715,-106.445,-126.465,-19.043
1789913208.597445,-193.848,-102.051,-126.465,-32.715
1789913208.601323,-176.270,-101.074,-132.324,-9.766
1789913208.605202,-147.461,-104.980,-129.883,21.973
1789913208.609080,-151.367,-109.375,-129.883,22.461
1789913208.612959,-181.152,-107.910,-133.789,4.395
1789913208.616837,-178.711,-103.516,-133.301,-1.465
1789913208.620716,-154.785,-107.422,-136.719,-4.395
1789913208.624594,-155.273,-107.910,-145.020,8.789
1789913208.628473,-214.844,-99.121,-149.414,-22.949
1789913208.632351,-220.215,-104.492,-144.043,-36.133
1789913208.636230,-174.316,-111.328,-145.508,-16.602
1789913208.640108,-143.066,-108.887,-148.926,0.977
1789913208.644289,-177.246,-109.375,-145.508,10.254
1789913208.648168,-211.426,-106.934,-143.555,-11.719
1789913208.652046,-188.477,-103.027,-147.949,-18.555
1789913208.655925,-156.250,-98.145,-137.207,-7.812
1789913208.659804,-171.875,-92.285,-127.930,-7.812
1789913208.663682,-203.613,-95.215,-124.512,-28.320
1789913208.667561,-191.895,-98.145,-123.047,-26.367
1789913208.671440,-157.227,-94.727,-128.418,21.973
1789913208.675318,-158.691,-95.703,-128.418,5.371
1789913208.679197,-211.426,-97.168,-122.559,-35.645
1789913208.683075,-219.238,-95.703,-117.676,-11.719
1789913208.686954,-182.129,-96.191,-115.234,8.301
1789913208.691117,-161.133,-95.215,-116.211,3.906
1789913208.694995,-185.059,-93.262,-111.328,-43.945
1789913208.698874,-193.848,-89.355,-110.840,-63.477
1789913208.702753,-169.922,-80.566,-108.398,-50.293
1789913208.706632,-127.930,-65.430,-104.980,-43.457
1789913208.710510,-152.344,-66.895,-102.051,-75.195
1789913208.714389,-196.777,-76.172,-104.492,-92.773
1789913208.718268,-169.922,-83.496,-113.281,-83.008
1789913208.722147,-137.695,-86.914,-114.746,-66.895
1789913208.726025,-162.598,-91.309,-102.051,-54.688
1789913208.729904,-195.801,-96.680,-97.168,-75.684
1789913208.733783,-191.406,-104.004,-104.004,-89.844
1789913208.737906,-161.133,-102.051,-100.098,-73.730
1789913208.741785,-138.184,-96.680,-94.727,-67.383
1789913208.745664,-178.223,-99.609,-94.727,-93.750
1789913208.749543,-198.730,-102.051,-94.238,-110.840
1789913208.753422,-161.621,-100.586,-88.379,-78.613
1789913208.757301,-135.742,-99.609,-79.590,-42.480
1789913208.761180,-171.387,-97.168,-73.730,-72.754
1789913208.765059,-175.781,-93.750,-76.172,-104.004
1789913208.768937,-138.184,-94.238,-75.684,-93.262
1789913208.772816,-114.746,-95.703,-77.637,-88.867
1789913208.776695,-140.625,-92.285,-74.707,-104.980
1789913208.780574,-170.410,-99.121,-75.684,-122.559
1789913208.784916,0.000,-110.840,0.000,-119.141
1789913208.788795,0.000,-120.605,0.000,-111.328
1789913208.792674,0.000,-134.766,0.000,-108.398
1789913208.796553,0.000,-141.113,0.000,-130.859
1789913208.800432,0.000,-219.727,0.000,-129.395
1789913208.804311,0.000,-313.477,0.000,-100.098
1789913208.808190,0.000,-330.078,0.000,-96.680
1789913208.812069,0.000,-325.684,0.000,-118.164
1789913208.815948,0.000,-323.242,0.000,-104.492
1789913208.819828,0.000,-326.660,0.000,-79.590
1789913208.823707,0.000,-325.195,0.000,-86.426
1789913208.827586,0.000,-311.523,0.000,-107.422
1789913208.831223,-159.668,-298.828,-84.961,-107.910
1789913208.835103,-136.719,-295.410,-84.473,-74.219
1789913208.838981,-104.004,-292.969,-83.496,-45.410
1789913208.842860,-111.816,-294.922,-82.520,-41.016
1789913208.846740,-147.461,-291.504,-76.660,-23.438
1789913208.850618,-127.441,-280.762,-81.055,18.555
1789913208.854497,-100.586,-282.227,-87.891,48.340
1789913208.858376,-114.258,-283.203,-84.961,65.918
1789913208.862255,-159.180,-281.250,-75.684,79.590
1789913208.866134,-166.992,-273.926,-77.637,114.746
1789913208.870013,-130.859,-261.719,-80.566,164.062
1789913208.873892,-104.004,-249.512,-70.801,213.867
1789913208.878177,-132.324,-244.141,-50.781,230.469
1789913208.882056,-157.227,-244.141,-60.059,252.441
1789913208.885935,-136.719,-237.305,-65.918,287.109
1789913208.889814,-114.746,-230.957,-64.453,308.105
1789913208.893693,-151.855,-232.422,-68.359,302.734
1789913208.897573,-170.898,-224.121,-69.824,305.176
1789913208.901452,-146.484,-214.355,-68.848,329.590
1789913208.905331,-107.422,-204.590,-62.012,377.441
1789913208.909210,-112.793,-195.312,-57.129,458.496
1789913208.913089,-151.367,-186.035,-58.594,517.090
1789913208.916968,-134.766,-178.223,-60.547,580.566
1789913208.920847,-103.027,-166.992,-56.152,651.367
1789913208.925103,-99.609,-153.320,-51.270,683.594
1789913208.928982,-125.977,-144.043,-43.457,699.707
1789913208.932862,-110.352,-131.836,-36.621,741.211
1789913208.936741,-73.730,-121.582,-35.156,779.297
1789913208.940620,-66.895,-118.164,-34.668,798.340
1789913208.944500,-100.098,-108.398,-32.227,795.898
1789913208.948379,-109.863,-98.145,-29.785,784.668
1789913208.952258,-77.637,-99.121,-26.855,795.898
1789913208.956138,-54.199,-106.445,-32.715,790.527
1789913208.960017,-89.844,-114.746,-42.480,731.445
1789913208.963897,-124.023,-111.328,-39.551,678.223
1789913208.967776,-103.516,-99.121,-34.668,644.531
1789913208.971997,-69.336,-93.262,-33.203,611.328
1789913208.975876,-66.895,-92.285,-41.016,570.312
1789913208.979755,-104.004,-93.262,-41.504,513.184
1789913208.983635,-108.398,-96.680,-42.480,480.469
1789913208.987514,-81.055,-94.727,-42.480,460.938
1789913208.991394,-65.430,-92.773,-31.738,432.617
1789913208.995273,-114.258,-89.355,-30.273,382.324
1789913208.999153,-117.676,-87.891,-29.297,365.234
1789913209.003032,-68.359,-81.055,-20.996,346.680
1789913209.006912,-50.293,-76.660,-20.996,327.637
1789913209.010792,-90.332,-81.543,-21.484,284.180
1789913209.014671,-113.281,-79.590,-18.555,217.773
1789913209.018883,0.000,-83.008,-20.996,187.500
1789913209.022763,0.000,-91.797,-24.414,176.270
1789913209.026642,0.000,-85.449,-18.066,153.320
1789913209.030522,0.000,-78.125,-15.137,120.117
1789913209.034402,0.000,-80.078,-12.695,117.188
1789913209.038281,0.000,-82.031,-4.395,125.488
1789913209.042161,0.000,-81.055,-2.441,115.723
1789913209.046041,0.000,-77.637,-1.465,98.633
1789913209.049920,0.000,-78.125,3.906,86.914
1789913209.053800,0.000,-82.520,7.812,94.238
1789913209.057680,0.000,-86.914,14.648,111.328
1789913209.061559,0.000,-95.703,17.578,86.914
1789913209.065712,-94.238,-99.121,16.113,70.801
1789913209.069592,-48.828,-101.562,20.508,72.266
1789913209.073472,-28.320,-110.840,17.578,73.242
1789913209.077352,-73.242,-125.488,13.672,62.988
1789913209.081232,-85.449,-133.789,21.973,47.363
1789913209.085111,-42.969,-140.137,28.809,41.504
1789913209.088991,-15.625,-150.391,41.504,47.852
1789913209.092871,-31.250,-159.180,50.781,34.180
1789913209.096750,-61.523,-162.598,57.129,10.254
1789913209.100630,-35.156,-166.992,72.754,23.926
1789913209.104510,8.301,-184.082,81.543,36.133
1789913209.108390,16.113,-210.449,85.449,18.066
1789913209.112516,-23.438,-225.098,90.332,26.367
1789913209.116395,-21.973,-216.797,98.633,72.754
1789913209.120275,24.902,-202.637,98.633,91.797
1789913209.124155,58.105,-189.941,109.863,96.191
1789913209.128035,35.645,-170.898,130.371,91.309
1789913209.131915,32.715,-163.574,140.625,74.219
1789913209.135795,87.891,-149.414,155.762,64.453
1789913209.139675,162.598,-84.961,213.379,114.258
1789913209.143555,177.246,-32.715,266.113,134.277
1789913209.147435,164.551,-22.949,278.809,119.141
1789913209.151314,185.547,-15.137,279.297,137.695
1789913209.155194,201.172,-2.441,278.809,146.484
1789913209.159513,181.152,2.930,269.043,131.348
1789913209.163393,134.766,-4.395,262.695,91.309
1789913209.167274,138.184,-7.812,262.695,94.727
1789913209.171154,170.898,-11.230,257.812,113.281
1789913209.175034,183.105,-17.090,253.906,104.980
1789913209.178914,142.578,-21.973,252.930,85.938
1789913209.182794,121.094,-22.461,244.629,67.383
1789913209.186674,133.301,-21.973,233.887,65.918
1789913209.190554,142.090,-29.785,235.840,44.922
1789913209.194434,115.723,-33.691,229.980,-75.684
1789913209.198314,100.586,-24.902,225.586,-178.223
1789913209.202194,130.859,-24.902,230.469,-199.219
1789913209.206494,150.391,-34.180,225.586,-215.820
1789913209.210374,122.070,-38.574,217.773,-255.859
1789913209.214254,83.984,-53.223,213.867,-286.621
1789913209.218135,85.449,-70.312,201.660,-280.273
1789913209.222015,97.168,-72.754,192.383,-284.668
1789913209.225895,79.590,-73.242,187.012,-306.641
1789913209.229775,38.086,-76.172,181.152,-340.820
1789913209.233656,44.434,-73.730,178.223,-356.934
1789913209.237536,72.754,-69.824,168.457,-335.449
1789913209.241416,71.777,-64.453,162.109,-333.984
1789913209.245296,17.578,-63.965,155.273,-363.281
1789913209.249177,-10.254,-66.895,146.484,-361.816
1789913209.253443,29.297,-54.688,139.160,-352.539
1789913209.257323,55.664,-42.969,134.277,-348.145
1789913209.261204,15.137,-40.527,135.254,-353.027
1789913209.265084,-0.488,-21.973,144.043,-340.820
1789913209.268965,30.762,-4.883,152.832,-320.801
1789913209.272845,54.688,1.465,151.855,-314.941
1789913209.276726,25.879,6.836,142.578,-332.031
1789913209.280606,-26.855,3.418,140.137,-364.746
1789913209.284487,-20.020,0.977,143.555,-365.723
1789913209.288367,24.414,11.230,138.184,-329.102
1789913209.292247,27.344,8.301,136.719,-319.336
1789913209.296128,-22.949,-6.836,127.441,-367.188
1789913209.300371,-20.996,-13.184,115.234,-387.695
1789913209.304252,15.137,-18.555,113.770,-381.348
1789913209.308133,17.578,-38.574,118.164,-386.230
1789913209.312013,-37.109,-58.594,110.352,-399.902
1789913209.315894,-59.570,-61.523,98.633,-415.527
1789913209.319775,-11.230,-57.129,99.121,-412.109
1789913209.323655,22.949,-50.781,101.562,-386.230
1789913209.327536,-13.184,-46.875,101.562,-390.625
1789913209.331416,-58.105,-48.340,94.238,-416.016
1789913209.335297,-39.062,-45.410,92.773,-402.344
1789913209.339178,0.000,-41.992,102.051,-362.305
1789913209.343058,-26.855,-40.527,101.074,-367.188
1789913209.347252,-69.336,-34.180,97.656,-395.508
1789913209.351133,-55.664,-39.062,91.797,-386.230
1789913209.355014,-18.066,-49.316,90.332,-365.234
1789913209.358895,12.207,-43.945,90.820,-359.863
1789913209.362775,-27.832,-40.527,90.332,-358.398
1789913209.366656,-51.270,-45.410,87.402,-362.305
1789913209.370537,-23.438,-43.945,87.402,-370.117
1789913209.374418,4.883,-41.992,82.031,-348.145
1789913209.378298,-37.598,-44.922,73.730,-368.652
1789913209.382179,-72.754,-47.363,74.707,-396.484
1789913209.386060,-36.133,-52.246,74.219,-384.766
1789913209.389941,1.953,-56.641,70.801,-359.375
1789913209.394140,-33.203,-59.570,73.242,-365.234
1789913209.398021,-61.523,-62.988,73.242,-369.141
1789913209.401902,-40.039,-61.035,66.406,-344.238
1789913209.405783,-14.160,-63.477,55.664,-333.008
1789913209.409664,-27.344,-63.477,56.152,-312.500
1789913209.413545,-66.895,-64.453,60.547,-328.613
1789913209.417426,-53.711,-68.359,63.477,-324.219
1789913209.421307,-23.926,-66.406,61.035,-298.340
1789913209.425188,-12.695,-60.059,55.176,-297.852
1789913209.429069,-48.828,-61.523,53.711,-286.621
1789913209.432949,-62.012,-67.871,54.688,-253.418
1789913209.436830,-25.391,-66.406,45.898,-228.516
1789913209.440965,-2.930,-63.477,42.480,-229.004
1789913209.444846,-46.387,-59.082,51.270,-224.121
1789913209.448727,-71.289,-63.965,53.223,-238.281
1789913209.452608,-54.199,-66.406,47.852,-247.070
1789913209.456489,-23.438,-66.406,42.480,-202.637
1789913209.460370,-40.527,-75.195,38.574,-212.891
1789913209.464251,-97.656,-76.660,43.457,-239.746
1789913209.468132,-72.266,-70.312,41.504,-227.051
1789913209.472013,-21.484,-64.453,33.203,-210.938
1789913209.475894,-29.297,-61.523,34.180,-190.430
1789913209.479775,-83.984,-65.430,34.668,-206.055
1789913209.483656,-75.195,-64.941,33.203,-235.352
1789913209.487763,-35.156,-62.500,35.645,-220.703
1789913209.491644,-19.531,-63.965,39.062,-177.246
1789913209.495525,-49.316,-62.988,38.574,-197.266
1789913209.499406,-67.383,-60.059,39.551,-199.219
1789913209.503287,-27.832,-43.945,58.105,-174.316
1789913209.507168,16.113,-33.691,66.406,-158.691
1789913209.511049,-15.137,-33.691,55.664,-131.836
1789913209.514930,-56.152,-35.645,58.105,-135.254
1789913209.518811,-39.062,-34.668,54.688,-109.863
1789913209.522692,-13.184,-39.062,49.316,-65.918
1789913209.526574,-31.250,-45.898,46.387,-77.637
1789913209.530455,-77.637,-49.316,47.363,-122.559
1789913209.534752,-59.570,-52.734,51.270,-131.348
1789913209.538633,-16.602,-47.363,47.363,-125.977
1789913209.542514,-14.160,-45.410,39.062,-137.695
1789913209.546395,-41.016,-39.062,40.527,-165.039
1789913209.550277,-37.109,-37.109,42.480,-126.953
1789913209.554158,-8.301,-39.551,43.945,-96.680
1789913209.558039,12.695,-23.438,46.387,-86.426
1789913209.561920,-27.832,-20.508,41.016,-104.004
1789913209.565802,-44.922,-32.715,37.598,-124.023
1789913209.569683,-11.719,-36.621,39.062,-82.520
1789913209.573564,11.719,-34.668,34.180,-62.988
1789913209.577446,-15.137,-32.715,32.715,-87.402
1789913209.581724,-61.523,-39.551,38.574,-123.047
1789913209.585606,-43.945,-42.480,41.016,-132.324
1789913209.589487,1.953,-37.598,44.922,-96.680
1789913209.593369,-3.418,-29.297,45.410,-71.777
1789913209.597250,-53.711,-26.855,40.527,-91.309
1789913209.601131,-53.711,-34.668,38.574,-71.777
1789913209.605013,-16.113,-36.621,35.645,-39.551
1789913209.608894,2.930,-37.598,37.598,-66.406
1789913209.612776,-37.598,-35.156,46.875,-115.234
1789913209.616657,-63.477,-37.598,42.969,-146.484
1789913209.620539,-43.945,-49.805,34.180,-169.434
1789913209.624420,-6.348,-47.363,35.156,-157.227
1789913209.628675,-41.992,-43.945,39.062,-169.922
1789913209.632557,-70.801,-38.086,38.574,-189.941
1789913209.636439,-38.086,-32.227,41.016,-185.059
1789913209.640320,-11.230,-39.551,45.898,-183.105
1789913209.644202,-25.391,-41.992,33.691,-226.562
1789913209.648083,-60.547,-45.898,23.926,-272.461
1789913209.651965,-41.992,-51.758,28.809,-255.371
1789913209.655847,-5.371,-49.805,19.531,-216.309
1789913209.659728,-10.742,-60.059,10.742,-187.500
1789913209.663610,-75.195,-66.895,13.672,-209.473
1789913209.667492,-83.008,-67.871,12.207,-209.473
1789913209.671373,-44.922,-74.219,8.789,-187.012
1789913209.675595,-42.969,-70.801,0.000,-169.922
1789913209.679477,-72.266,-68.359,0.000,-199.219
1789913209.683358,-66.406,-65.918,0.000,-195.312
1789913209.687240,-37.109,-63.477,0.000,-153.320
1789913209.691122,-17.090,-66.895,0.000,-128.418
1789913209.695004,-44.922,-70.312,0.000,-136.230
1789913209.698885,-74.219,-77.637,0.000,-139.160
1789913209.702767,-54.199,-88.867,0.000,-129.883
1789913209.706649,-26.367,-92.773,0.000,-127.930
1789913209.710531,-44.922,-98.633,0.000,-117.188
1789913209.714412,-66.895,-102.051,0.000,-125.488
1789913209.718294,-31.250,-104.980,0.000,-99.609
1789913209.722481,-16.602,-114.746,-5.371,-70.801
1789913209.726363,-24.902,-116.211,-13.672,-82.520
1789913209.730245,-45.410,-116.699,-12.695,-81.055
1789913209.734127,-58.105,-116.699,-9.766,-77.637
1789913209.738008,-22.461,-117.676,-8.789,-81.543
1789913209.741890,7.812,-118.652,-5.859,-62.012
1789913209.745772,-26.367,-111.328,-7.812,-86.426
1789913209.749654,-37.109,-110.840,-3.418,-84.961
1789913209.753536,-11.230,-97.656,-0.488,-44.434
1789913209.757418,20.508,-87.891,-2.441,-20.020
1789913209.761300,-10.254,-98.633,-7.324,-50.293
1789913209.765182,-51.270,-101.074,-4.883,-85.938
1789913209.769328,-0.977,-96.680,7.324,-94.238
1789913209.773210,27.344,-89.355,10.254,-85.449
1789913209.777092,11.719,-89.355,16.602,-88.379
1789913209.780974,-22.949,-92.285,16.113,-101.074
1789913209.784856,-24.902,-81.055,15.625,-92.285
1789913209.788738,8.301,-78.125,19.043,-75.195
1789913209.792620,31.738,-81.055,19.531,-57.617
1789913209.796502,-9.277,-73.730,20.508,-79.102
1789913209.800384,-18.555,-70.312,17.578,-89.844
1789913209.804266,16.602,-71.289,16.602,-53.223
1789913209.808148,27.344,-68.848,15.625,-21.973
1789913209.812030,-2.441,-67.383,19.043,-26.367
1789913209.816160,-18.555,-69.824,17.578,-26.855
1789913209.820042,14.160,-62.012,21.484,-5.371
1789913209.823924,39.062,-56.641,22.461,18.066
1789913209.827806,23.438,-65.430,17.578,-0.488
1789913209.831688,13.184,-74.219,23.438,-3.906
1789913209.835570,29.785,-67.383,24.902,27.832
1789913209.839453,56.152,-58.594,19.531,26.855
1789913209.843334,62.500,-55.176,20.508,21.973
1789913209.847217,26.367,-57.617,21.484,-3.418
1789913209.851099,29.785,-51.758,16.113,-13.672
1789913209.854981,64.941,-49.805,16.113,-4.395
1789913209.858863,82.520,-52.734,15.137,-8.789
1789913209.862954,40.527,-47.363,17.090,-14.160
1789913209.866836,28.809,-43.945,14.160,-10.742
1789913209.870718,69.336,-53.711,13.184,9.766
1789913209.874600,87.891,-49.805,18.066,10.254
1789913209.878483,46.387,-47.363,20.996,-23.926
1789913209.882365,20.020,-53.223,17.578,-39.062
1789913209.886247,58.594,-49.316,12.207,-40.527
1789913209.890129,84.473,-54.688,10.742,-39.551
1789913209.894011,66.406,-66.406,6.348,-49.316
1789913209.897893,38.574,-61.035,7.812,-93.262
1789913209.901776,48.828,-52.734,12.207,-87.891
1789913209.905658,79.590,-58.105,13.184,-58.594
1789913209.909948,88.867,-62.500,11.719,-68.359
1789913209.913831,52.246,-66.895,12.207,-103.027
1789913209.917713,57.129,-61.523,8.301,-123.047
1789913209.921596,90.332,-61.523,3.906,-115.234
1789913209.925478,119.141,-81.055,2.441,-92.285
1789913209.929360,80.078,-72.266,6.348,-95.703
1789913209.933243,34.180,-55.176,7.812,-113.281
1789913209.937125,64.453,-77.637,7.324,-108.887
1789913209.941007,113.770,-91.309,7.812,-97.168
1789913209.944890,84.473,-89.844,11.230,-120.605
1789913209.948772,57.129,-76.660,8.301,-131.348
1789913209.952654,81.055,-62.988,0.000,-132.812
1789913209.956919,109.375,-62.500,6.348,-129.395
1789913209.960802,97.656,-69.336,9.766,-119.141
1789913209.964684,31.250,-65.918,1.953,-144.043
1789913209.968567,12.695,-56.152,-1.953,-162.598
1789913209.972449,57.617,-69.336,-0.488,-139.160
1789913209.976332,81.543,-72.754,-5.859,-149.902
1789913209.980214,51.758,-75.684,-7.324,-185.547
1789913209.984097,45.898,-65.918,-5.371,-147.461
1789913209.987979,67.383,-51.758,-15.625,-114.746
1789913209.991862,131.836,-80.566,-18.555,-136.230
1789913209.995744,99.121,-78.125,-18.555,-144.531
1789913209.999627,70.801,-74.707,-20.508,-154.785
1789913210.003859,124.512,-83.496,-22.461,-122.070
1789913210.007741,150.391,-79.102,-23.926,-64.453
1789913210.011624,114.258,-83.496,-27.832,-66.895
1789913210.015507,111.816,-95.703,-29.785,-71.289
1789913210.019389,140.625,-84.961,-45.410,-56.641
1789913210.023272,164.062,-78.125,-50.781,-52.734
1789913210.027154,194.336,-88.379,-44.434,-40.527
1789913210.031037,170.898,-83.984,-42.480,-41.504
1789913210.034920,162.109,-56.641,-58.594,-20.996
1789913210.038802,215.332,-70.312,-76.172,2.930
1789913210.042685,268.066,-69.824,-83.984,14.648
1789913210.046568,278.320,-66.895,-68.848,20.996
1789913210.050763,317.383,-77.637,-48.340,51.270
1789913210.054646,364.746,-72.754,-45.898,76.660
1789913210.058529,473.145,-70.312,-49.316,81.055
1789913210.062412,580.078,-72.754,-58.594,60.059
1789913210.066294,612.305,-79.102,-60.059,51.270
1789913210.070177,682.129,-94.727,-48.340,79.590
1789913210.074060,752.441,-99.609,-54.199,73.242
1789913210.077943,754.395,-104.004,-53.711,42.969
1789913210.081825,681.152,-83.984,-54.688,27.344
1789913210.085708,706.543,-86.426,-40.527,63.477
1789913210.089591,766.113,-98.633,-25.879,90.820
1789913210.093474,754.883,-98.633,-34.668,82.031
1789913210.097641,681.641,-105.957,-41.504,55.176
1789913210.101524,648.438,-105.957,-46.387,32.715
