timestamp,TP9,AF7,AF8,TP10
1789911307.875936,0.000,0.000,-0.488,0.000
1789911307.879795,-0.488,0.000,-0.488,-0.488
1789911307.883655,-1.953,-1.465,2.930,-1.465
1789911307.887514,7.324,1.953,-15.137,3.418
1789911307.891374,-33.203,-12.695,61.523,-18.066
1789911307.895234,-31.250,-33.203,15.625,-20.020
1789911307.899093,47.363,-28.320,-82.520,11.230
1789911307.902953,-2.930,-26.855,-25.879,0.488
1789911307.906812,-76.660,-29.297,-20.508,-29.297
1789911307.910672,-39.062,-23.926,-19.043,-28.809
1789911307.914532,46.875,-20.508,-13.184,2.930
1789911307.918391,26.855,-24.902,-12.207,-3.418
1789911307.921177,0.000,-23.438,-12.207,-23.926
1789911307.924947,0.000,-21.973,-18.555,-17.578
1789911307.928717,0.000,-24.902,-25.879,-7.324
1789911307.932487,0.000,-23.926,-23.926,-4.395
1789911307.936258,0.000,-28.809,-26.367,-38.086
1789911307.940028,0.000,-41.504,-33.203,-46.387
1789911307.943798,0.000,-46.875,-23.438,2.441
1789911307.947568,0.000,-34.668,-18.066,14.648
1789911307.951338,0.000,-22.949,-32.227,-49.316
1789911307.955108,0.000,-40.039,-37.109,-70.801
1789911307.958878,0.000,-42.480,-36.621,-52.246
1789911307.962648,0.000,-32.715,-32.715,-35.156
1789911307.964602,-53.223,-35.645,-38.086,-52.734
1789911307.968296,-134.277,-32.715,-35.645,-93.262
1789911307.971991,-97.168,-25.391,-31.738,-83.496
1789911307.975685,-13.672,-28.809,-14.648,-48.340
1789911307.979380,-16.113,-29.785,-17.578,-37.109
1789911307.983074,-86.426,-24.414,-43.457,-54.199
1789911307.986768,-86.426,-24.902,-36.133,-51.758
1789911307.990463,-10.254,-19.531,-27.832,-28.809
1789911307.994157,29.297,-18.555,-27.344,-13.184
1789911307.997852,-59.570,-23.438,-29.297,-42.480
1789911308.001546,-86.914,-22.461,-27.832,-61.035
1789911308.005241,-11.719,-20.508,-25.391,-29.297
1789911308.005568,32.715,-25.391,-28.809,-12.695
1789911308.009169,-29.297,-27.832,-33.203,-24.902
1789911308.012770,-96.191,-29.785,-31.250,-37.109
1789911308.016371,-45.410,-27.344,-33.691,-45.410
1789911308.019972,43.457,-20.508,-30.762,-19.043
1789911308.023572,-1.953,-23.926,-33.203,-19.531
1789911308.027174,-92.773,-28.809,-33.203,-59.570
1789911308.030774,-69.824,-26.855,-33.203,-61.035
1789911308.034375,19.043,-29.785,-38.574,-20.508
1789911308.037976,31.738,-20.508,-25.391,1.465
1789911308.041577,-62.012,-21.484,-29.785,-31.738
1789911308.045178,-92.285,-40.527,-25.879,-47.363
1789911308.046440,-6.836,-36.133,-21.484,-24.902
1789911308.049993,44.434,-31.738,-42.969,-6.348
1789911308.053545,-43.457,-35.156,-40.039,-23.438
1789911308.057097,-84.961,-37.109,-41.504,-41.016
1789911308.060649,-27.344,-36.133,-41.504,-45.898
1789911308.064201,43.945,-27.832,-34.180,-15.625
1789911308.067754,-9.766,-33.203,-38.086,-13.672
1789911308.071306,-86.426,-39.551,-31.738,-33.691
1789911308.074858,-48.340,-38.086,-28.320,-26.855
1789911308.078410,24.414,-42.969,-34.180,-16.113
1789911308.081962,1.953,-42.480,-34.180,-16.602
1789911308.085514,-85.449,-38.086,-31.250,-35.645
1789911308.086437,-76.660,-40.527,-29.297,-31.250
1789911308.089945,9.277,-42.480,-24.902,-7.324
1789911308.093453,28.320,-43.457,-22.949,5.859
1789911308.096962,-59.570,-45.410,-35.156,-22.949
1789911308.100470,-80.078,-47.363,-37.109,-42.480
1789911308.103978,-8.301,-51.270,-29.785,-18.066
1789911308.107487,38.086,-50.293,-32.227,-12.695
1789911308.110995,-30.762,-41.504,-36.621,-18.555
1789911308.114504,-96.191,-43.457,-22.949,-25.391
1789911308.118012,-42.480,-46.387,-26.855,-39.551
1789911308.121520,39.551,-41.016,-34.180,-7.812
1789911308.125029,-5.371,-41.016,-31.250,2.441
1789911308.127747,0.000,-47.852,-36.621,-28.320
1789911308.131245,0.000,-45.410,-32.715,-39.062
1789911308.134742,0.000,-34.180,-35.156,-28.809
1789911308.138239,0.000,-29.297,-37.598,-10.742
1789911308.141737,0.000,-38.574,-40.527,-26.367
1789911308.145234,0.000,-48.828,-46.387,-41.504
1789911308.148732,0.000,-41.016,-43.457,-15.625
1789911308.152229,0.000,-35.156,-44.434,15.625
1789911308.155726,0.000,-42.969,-53.223,-14.160
1789911308.159224,0.000,-47.852,-50.781,-41.504
1789911308.162721,0.000,-44.434,-40.527,-8.301
1789911308.166219,0.000,-34.668,-32.227,17.578
1789911308.169656,-11.719,-34.668,-36.133,-16.113
1789911308.173152,-66.895,-41.016,-44.434,-22.949
1789911308.176649,-24.902,-40.039,-48.828,-4.883
1789911308.180146,42.969,-31.250,-41.504,2.441
1789911308.183643,4.883,-30.762,-36.621,-7.812
1789911308.187139,-81.543,-39.062,-44.434,-32.715
1789911308.190636,-46.875,-36.133,-41.016,-21.973
1789911308.194133,35.156,-29.785,-33.203,0.000
1789911308.197629,25.391,-28.809,-25.391,-4.395
1789911308.201126,-68.848,-35.156,-38.574,-31.738
1789911308.204623,-88.867,-35.156,-45.898,-42.480
1789911308.208119,-9.766,-32.227,-39.062,-15.137
1789911308.211983,27.832,-33.691,-34.668,-8.789
1789911308.215484,-52.734,-31.738,-39.062,-33.691
1789911308.218984,-94.727,-34.180,-40.039,-45.898
1789911308.222485,-23.438,-31.738,-30.273,-33.203
1789911308.225985,45.898,-27.344,-30.762,-10.254
1789911308.229486,-18.066,-29.297,-34.180,-11.719
1789911308.232986,-87.891,-32.227,-43.457,-27.832
1789911308.236487,-43.945,-29.785,-40.039,-20.996
1789911308.239987,40.039,-25.879,-29.297,-0.488
1789911308.243488,9.766,-25.879,-36.133,-19.531
1789911308.246988,-81.543,-32.715,-35.645,-46.875
1789911308.250489,-53.223,-30.762,-25.879,-43.945
1789911308.254496,30.273,-26.367,-26.855,-19.043
1789911308.258002,23.926,-28.809,-11.230,-14.160
1789911308.261507,-66.895,-35.645,-28.809,-30.273
1789911308.265012,-81.543,-40.527,-47.363,-32.227
1789911308.268517,6.836,-34.180,-26.855,-6.836
1789911308.272022,54.199,-29.785,-25.879,23.926
1789911308.275527,-24.414,-34.668,-27.344,-19.043
1789911308.279033,-72.266,-33.691,-21.973,-33.691
1789911308.282538,-11.230,-25.391,-13.672,-13.184
1789911308.286043,55.664,-20.020,-13.672,0.977
1789911308.289548,-2.441,-29.785,-25.879,-12.207
1789911308.293053,-75.195,-39.551,-24.414,-42.480
1789911308.298197,-47.363,-35.156,-19.043,-23.438
1789911308.301716,23.926,-31.738,-21.973,8.301
1789911308.305234,1.953,-35.156,-23.438,-18.555
1789911308.308753,-83.008,-40.527,-21.973,-48.828
1789911308.312272,-73.730,-37.109,-22.949,-39.551
1789911308.315791,3.906,-30.273,-34.180,-16.602
1789911308.319310,21.484,-29.297,-30.273,-7.812
1789911308.322829,-57.129,-31.738,-28.809,-31.738
1789911308.326348,-81.543,-36.133,-27.832,-43.945
1789911308.329866,0.977,-37.109,-22.949,-21.973
1789911308.333385,43.945,-29.297,-35.645,-7.324
1789911308.336904,-47.852,-31.738,-41.504,-31.250
1789911308.342123,-97.168,-38.574,-38.086,-49.805
1789911308.345654,-32.227,-32.715,-41.016,-23.926
1789911308.349186,47.363,-30.273,-36.621,2.930
1789911308.352718,-0.977,-39.062,-36.621,-18.555
1789911308.356249,-78.613,-39.062,-41.016,-31.738
1789911308.359781,-43.457,-36.133,-34.180,-29.297
1789911308.363313,36.621,-39.062,-34.180,-13.672
1789911308.366844,23.926,-41.016,-47.363,-0.488
1789911308.370376,-58.105,-27.832,-39.551,-22.461
1789911308.373908,-63.965,-21.484,-36.621,-29.297
1789911308.377440,9.277,-28.809,-39.062,-9.766
1789911308.380971,39.551,-23.926,-37.109,10.742
1789911308.386290,-45.898,-26.855,-44.434,-26.367
1789911308.389834,-76.660,-31.738,-47.852,-52.246
1789911308.393378,-11.230,-29.297,-45.410,-30.273
1789911308.396923,51.270,-22.949,-35.156,4.395
1789911308.400467,-19.531,-19.043,-28.320,-21.973
1789911308.404011,-83.496,-23.438,-51.270,-47.363
1789911308.407555,-38.086,-28.320,-67.871,-37.109
1789911308.411099,37.109,-33.203,-40.527,-15.137
1789911308.414643,5.371,-31.738,-31.250,-7.812
1789911308.418187,-85.938,-31.738,-40.527,-41.016
1789911308.421731,-71.289,-35.156,-43.457,-41.504
1789911308.425276,14.648,-27.832,-35.645,-14.648
1789911308.430577,22.949,-18.555,-32.715,-16.113
1789911308.434132,-72.266,-21.973,-36.133,-36.621
1789911308.437688,-84.961,-21.484,-29.297,-36.621
1789911308.441243,-7.324,-27.344,-16.602,-31.250
1789911308.444799,6.348,-44.434,-21.484,-33.203
1789911308.448354,-74.219,-44.922,-43.457,-41.992
1789911308.451909,-91.309,-39.062,-38.574,-39.551
1789911308.455465,-34.668,-36.133,-37.109,-37.598
1789911308.459020,30.273,-34.668,-38.086,-18.066
1789911308.462576,-9.277,-22.461,-26.367,-15.625
1789911308.466131,-104.004,-35.156,-24.902,-41.016
1789911308.469686,-71.289,-42.480,-5.859,-47.363
1789911308.476674,0.000,-22.461,11.230,-20.020
1789911308.480250,0.000,-9.277,4.883,-6.836
1789911308.483826,0.000,-16.113,-30.762,-45.410
1789911308.487402,0.000,-41.016,-44.434,-69.824
1789911308.490978,0.000,-37.598,-25.391,-34.668
1789911308.494553,0.000,-31.738,-8.301,-9.277
1789911308.498129,0.000,-52.734,-13.184,-39.062
1789911308.501705,0.000,-39.551,-33.691,-53.711
1789911308.505281,0.000,-16.113,-14.648,-22.949
1789911308.508857,0.000,-18.555,-1.465,-5.371
1789911308.512433,0.000,-24.902,-3.906,-37.109
1789911308.516008,0.000,-38.574,-5.371,-68.848
1789911308.521898,-34.180,-25.391,0.000,-27.832
1789911308.525487,75.195,4.395,0.000,37.598
1789911308.529075,11.719,-6.348,0.000,6.348
1789911308.532664,-87.402,-34.668,0.000,-57.617
1789911308.536253,-39.551,-29.297,0.000,-41.016
1789911308.539841,61.035,-18.555,0.000,-4.395
1789911308.543430,30.762,-48.828,0.000,-9.766
1789911308.547019,-61.035,-47.363,0.000,-31.738
1789911308.550607,-33.203,-19.043,0.000,-6.836
1789911308.554196,57.617,-17.578,0.000,31.250
1789911308.557785,62.012,-41.504,0.000,4.883
1789911308.561373,-15.137,-46.387,0.000,-20.020
1789911308.567233,-29.297,-39.551,-23.926,1.465
1789911308.570833,14.648,-56.641,-20.020,-0.488
1789911308.574434,68.848,-60.059,-15.625,11.719
1789911308.578034,19.043,-67.383,-7.324,6.348
1789911308.581635,-32.227,-67.871,10.742,-7.324
1789911308.585235,10.254,-63.965,32.227,9.277
1789911308.588836,77.148,-87.891,47.363,26.367
1789911308.592436,33.203,-90.820,36.621,11.719
1789911308.596037,-93.750,-111.816,24.902,-66.895
1789911308.599637,-58.594,-113.770,41.992,-60.547
1789911308.603238,101.074,-62.012,31.250,32.715
1789911308.606838,92.773,-66.406,34.180,40.527
1789911308.612517,-24.414,-87.402,20.020,2.930
1789911308.616128,-47.852,-95.703,11.719,-20.996
1789911308.619739,28.809,-100.098,34.668,-7.324
1789911308.623349,37.598,-112.305,8.301,-11.230
1789911308.626960,-43.945,-107.910,-109.375,-10.742
1789911308.630571,-50.293,-84.473,-140.625,19.043
1789911308.634181,1.953,-84.961,-96.680,12.695
1789911308.637792,48.340,-87.891,-81.543,4.395
1789911308.641403,-32.715,-98.145,-80.566,-45.898
1789911308.645014,-111.328,-102.539,-83.984,-79.102
1789911308.648624,-52.734,-97.168,-65.918,-41.504
1789911308.652235,20.508,-98.145,-74.219,-19.043
1789911308.659289,0.000,-94.727,-43.945,-46.875
1789911308.662916,0.000,-99.121,-32.227,-58.594
1789911308.666543,0.000,-83.008,-50.293,-38.574
1789911308.670169,0.000,-74.707,-44.922,-46.875
1789911308.673796,0.000,-108.887,-17.090,-84.473
1789911308.677422,0.000,-105.469,-14.160,-99.121
1789911308.681049,0.000,-60.547,-28.809,-68.848
1789911308.684676,0.000,-55.664,-4.883,-46.875
1789911308.688302,0.000,-76.172,-35.156,-33.203
1789911308.691929,0.000,-80.078,-37.109,-74.219
1789911308.695555,0.000,-83.496,8.301,-105.469
1789911308.699182,0.000,-103.027,-19.531,-105.469
1789911308.707326,-23.438,-94.238,-17.090,-54.688
1789911308.710972,-63.477,-77.148,8.301,-50.293
1789911308.714619,-142.578,-58.105,19.043,-92.285
1789911308.718265,-124.023,-65.430,20.996,-95.215
1789911308.721912,-110.840,-112.305,68.359,-134.766
1789911308.725558,-107.910,-95.703,128.906,-120.605
1789911308.729205,-124.023,-31.250,107.910,-73.242
1789911308.732851,-105.469,4.883,155.762,-72.266
1789911308.736498,-37.109,17.578,392.090,-65.918
1789911308.740144,-33.203,38.086,407.715,-55.664
1789911308.743790,-155.273,54.199,476.074,-122.559
1789911308.747437,-162.109,103.027,919.434,-128.418
1789911308.753790,-94.727,148.438,984.863,-93.262
1789911308.757448,-47.363,159.180,952.637,-82.520
1789911308.761106,-55.176,208.496,971.680,-60.547
1789911308.764763,-36.621,213.867,968.262,-2.930
1789911308.768421,63.965,174.805,968.262,56.641
1789911308.772079,118.652,109.863,968.262,52.246
1789911308.775736,85.449,6.348,968.262,58.105
1789911308.779394,4.395,-93.262,968.262,65.918
1789911308.783052,9.277,-114.258,967.773,37.109
1789911308.786710,104.004,-145.020,967.285,35.156
1789911308.790367,136.719,-216.797,967.285,87.891
1789911308.794025,65.918,-288.574,950.684,106.934
1789911308.800125,48.340,-354.980,926.270,103.027
1789911308.803793,101.074,-473.145,923.828,83.496
1789911308.807460,127.930,-601.074,916.992,82.520
1789911308.811128,60.547,-653.809,920.410,80.078
1789911308.814795,-27.832,-761.719,913.574,3.906
1789911308.818463,5.371,-820.801,899.414,-14.160
1789911308.822130,95.703,-817.871,887.207,41.016
1789911308.825797,41.504,-886.719,863.770,38.574
1789911308.829465,-44.922,-934.082,833.008,-11.230
1789911308.833132,-29.297,-951.660,745.605,-36.621
1789911308.836800,42.969,-949.707,631.348,-8.301
1789911308.840467,43.457,-930.176,672.852,18.555
1789911308.846439,-10.742,-904.297,761.719,30.762
1789911308.850115,2.441,-883.301,731.445,18.066
1789911308.853791,101.074,-858.887,390.137,58.594
1789911308.857467,122.559,-836.914,223.145,105.469
1789911308.861143,64.453,-782.715,333.984,112.305
1789911308.864819,71.289,-741.211,-265.625,111.328
1789911308.868495,157.715,-732.910,-725.098,139.648
1789911308.872172,205.078,-719.727,-884.766,189.941
1789911308.875848,113.770,-700.684,-1000.000,173.340
1789911308.879524,73.242,-654.785,-996.582,156.738
1789911308.883200,143.555,-582.520,-998.047,179.199
1789911308.886876,228.027,-485.352,-1000.000,202.148
1789911308.892848,0.000,-424.316,-1000.000,178.223
1789911308.896533,0.000,-386.230,-1000.000,145.996
1789911308.900218,0.000,-292.969,-1000.000,157.715
1789911308.903902,0.000,-219.727,-1000.000,180.176
1789911308.907586,0.000,-178.711,-1000.000,172.363
1789911308.911271,0.000,-126.953,-1000.000,142.578
1789911308.914955,0.000,-64.453,-1000.000,161.621
1789911308.918640,0.000,38.086,-1000.000,189.453
1789911308.922324,0.000,121.094,-1000.000,169.434
1789911308.926009,0.000,152.344,-1000.000,105.469
1789911308.929693,0.000,223.633,-1000.000,91.797
1789911308.933378,0.000,329.102,-1000.000,167.969
1789911308.938944,192.871,370.605,-1000.000,157.227
1789911308.942635,16.602,313.477,-999.512,28.809
1789911308.946326,-23.438,394.043,-993.652,34.668
1789911308.950016,41.504,445.312,-998.535,50.293
1789911308.953707,-1.465,382.812,-845.703,-53.223
1789911308.957399,-82.031,443.848,-603.027,-103.027
1789911308.961090,-3.906,616.211,-658.691,21.484
1789911308.964781,47.852,642.090,38.086,45.898
1789911308.968472,40.527,527.344,-210.449,-20.508
1789911308.972162,32.227,508.789,-796.387,-2.930
1789911308.975853,-73.730,483.887,511.230,-71.289
1789911308.979545,-15.137,484.863,999.512,-20.996
1789911308.985030,61.035,430.664,922.852,2.441
1789911308.988727,69.824,321.289,970.215,-12.695
1789911308.992424,53.223,193.359,942.383,49.316
1789911308.996121,56.641,116.699,919.922,85.449
1789911308.999818,105.957,49.316,932.129,71.777
1789911309.003515,155.273,10.742,912.109,89.844
1789911309.007212,96.191,59.570,858.887,98.145
1789911309.010909,31.250,147.949,852.539,68.848
1789911309.014606,100.098,261.719,387.207,84.961
1789911309.018303,171.875,285.156,-386.719,90.820
1789911309.022000,103.516,276.367,-488.281,65.918
1789911309.025697,14.160,284.668,-141.113,35.156
1789911309.032223,47.363,287.598,80.566,49.805
1789911309.035929,89.355,249.023,220.215,45.898
1789911309.039635,5.859,172.852,253.906,-29.785
1789911309.043341,-76.660,135.254,171.387,-42.480
1789911309.047047,-58.594,66.895,118.652,-3.906
1789911309.050753,14.160,-49.316,162.109,24.414
1789911309.054459,72.754,-142.578,227.539,57.617
1789911309.058165,25.879,-242.188,276.855,63.477
1789911309.061871,15.137,-388.184,-57.617,69.824
1789911309.065578,104.980,-544.922,-693.848,121.094
1789911309.069283,205.078,-728.027,-863.770,187.988
1789911309.072989,164.551,-957.031,-736.816,190.918
1789911309.080414,0.000,-1000.000,-75.195,168.457
1789911309.084131,0.000,-993.164,554.688,153.809
1789911309.087849,0.000,-1000.000,776.855,182.129
1789911309.091566,0.000,-994.141,654.297,199.219
1789911309.095284,0.000,-1000.000,612.305,184.570
1789911309.099001,0.000,-868.164,-199.219,189.941
1789911309.102719,0.000,-565.430,-1000.000,210.938
1789911309.106436,0.000,-175.781,-976.074,205.566
1789911309.110154,0.000,195.312,-983.887,178.223
1789911309.113872,0.000,477.539,-1000.000,170.410
1789911309.117589,0.000,730.957,-1000.000,182.617
1789911309.121307,0.000,895.508,-1000.000,195.312
1789911309.127285,121.582,962.891,-1000.000,161.621
1789911309.131010,69.824,967.285,-1000.000,130.371
1789911309.134734,141.113,967.285,-1000.000,140.625
1789911309.138458,205.566,968.750,-1000.000,160.156
1789911309.142183,144.531,968.262,-1000.000,148.438
1789911309.145907,76.172,968.262,-1000.000,121.582
1789911309.149631,109.375,968.262,-1000.000,131.348
1789911309.153355,192.871,968.262,-1000.000,153.320
1789911309.157079,158.691,968.262,-1000.000,140.625
1789911309.160804,44.434,968.262,-997.559,102.051
1789911309.164528,44.434,968.750,-988.770,93.262
1789911309.168252,104.004,968.262,-937.500,92.285
1789911309.175053,100.586,967.773,-655.762,84.961
1789911309.178786,18.555,966.309,-10.742,58.594
1789911309.182519,-11.230,971.680,333.984,37.598
1789911309.186252,48.828,930.176,427.734,42.969
1789911309.189986,86.914,863.770,816.895,46.387
1789911309.193718,-2.930,831.543,985.840,5.859
1789911309.197452,-71.777,794.922,955.078,-14.648
1789911309.201185,-12.207,758.301,968.262,10.742
1789911309.204918,70.801,736.328,968.750,25.879
1789911309.208651,17.578,716.309,967.773,3.906
1789911309.212384,-66.895,692.383,968.262,-14.648
1789911309.216117,-29.785,664.551,967.773,-6.836
1789911309.221549,54.199,646.484,967.773,7.812
1789911309.225287,48.340,630.859,967.285,0.000
1789911309.229025,-40.039,612.305,966.309,-18.555
1789911309.232763,-43.457,596.680,965.820,-18.555
1789911309.236501,27.344,568.359,961.426,-13.184
1789911309.240238,36.621,538.086,956.055,-12.207
1789911309.243976,-53.223,519.531,948.730,-35.156
1789911309.247714,-82.031,500.000,926.758,-40.527
1789911309.251452,-11.230,481.934,868.164,-16.602
1789911309.255189,39.551,467.773,793.945,-0.488
1789911309.258927,-30.273,453.613,723.633,-17.578
1789911309.262665,-88.379,426.270,664.551,-28.809
1789911309.269038,-40.527,401.367,619.141,-37.598
1789911309.272783,38.574,390.625,567.871,-23.438
1789911309.276528,-2.930,383.301,516.113,-32.227
1789911309.280273,-85.449,371.582,521.484,-62.988
1789911309.284018,-66.895,347.168,508.301,-66.406
1789911309.287763,9.277,329.590,463.379,-48.340
1789911309.291508,-1.465,313.477,435.547,-46.387
1789911309.295253,-88.379,293.457,388.184,-69.824
1789911309.298998,-102.051,275.391,358.887,-78.613
1789911309.302742,-31.250,260.742,337.891,-71.289
1789911309.306487,11.230,255.859,313.965,-44.434
1789911309.310232,-76.660,247.070,291.016,-65.430
1789911309.315438,-131.836,234.375,275.391,-89.355
1789911309.319186,-69.336,225.098,259.277,-72.266
1789911309.322935,2.930,220.703,249.512,-46.875
1789911309.326684,-58.105,218.262,243.652,-58.105
1789911309.330433,-124.512,218.262,234.375,-74.219
1789911309.334181,-79.102,212.891,233.398,-68.359
1789911309.337930,3.906,208.008,272.949,-57.617
1789911309.341679,-25.879,202.148,288.086,-54.688
1789911309.345428,-125.977,192.383,264.160,-91.309
1789911309.349176,-105.957,189.453,261.230,-93.750
1789911309.352925,-13.672,182.617,276.855,-56.152
1789911309.356673,-11.719,170.898,266.113,-66.406
1789911309.361718,-113.770,159.668,237.305,-105.469
1789911309.365470,-135.254,165.039,225.098,-111.328
1789911309.369222,-48.828,181.641,259.277,-78.613
1789911309.372974,10.742,198.242,313.477,-34.180
1789911309.376726,-86.914,194.336,301.270,-70.312
1789911309.380478,-155.273,188.965,283.203,-104.492
1789911309.384230,-94.727,188.965,304.199,-83.984
1789911309.387981,-29.785,195.312,294.434,-68.359
1789911309.391733,-85.938,200.684,253.906,-97.656
1789911309.395485,-173.340,180.176,245.605,-128.418
1789911309.399237,-143.555,182.129,263.672,-122.559
1789911309.402989,-47.852,191.406,280.273,-97.656
1789911309.409818,0.000,191.895,281.250,-100.098
1789911309.413578,0.000,190.918,273.438,-139.160
1789911309.417337,0.000,178.711,270.508,-156.250
1789911309.421097,0.000,181.152,273.438,-148.926
1789911309.424856,0.000,178.711,262.207,-149.902
1789911309.428616,0.000,181.641,269.531,-163.574
1789911309.432375,0.000,207.031,286.133,-178.711
1789911309.436135,0.000,195.801,267.090,-207.031
1789911309.439894,0.000,185.059,231.934,-188.965
1789911309.443654,0.000,194.824,196.777,-165.039
1789911309.447413,0.000,171.387,178.711,-182.129
1789911309.451173,0.000,142.578,168.457,-189.941
1789911309.456783,-97.656,133.789,175.781,-144.043
1789911309.460546,-120.117,139.648,160.645,-130.371
1789911309.464310,-195.312,130.859,154.297,-160.645
1789911309.468074,-141.113,117.188,160.645,-136.719
1789911309.471838,-39.551,120.117,147.461,-98.633
1789911309.475602,-39.551,100.098,119.629,-104.004
1789911309.479366,-132.812,86.426,101.074,-120.605
1789911309.483130,-126.953,92.285,85.938,-105.957
1789911309.486894,-9.277,94.238,57.617,-62.012
1789911309.490658,23.438,94.727,20.508,-40.039
1789911309.494422,-80.078,78.613,-1.465,-68.848
1789911309.498186,-117.188,58.105,-4.883,-76.172
1789911309.503658,0.000,58.105,-3.906,-42.480
1789911309.507426,0.000,65.918,-11.230,-11.719
1789911309.511194,0.000,57.129,-38.574,-37.598
1789911309.514962,0.000,51.758,-55.664,-63.965
1789911309.518729,0.000,55.176,-54.688,-47.363
1789911309.522497,0.000,53.223,-54.199,-15.625
1789911309.526265,0.000,51.270,-72.266,-21.973
1789911309.530033,0.000,40.527,-74.707,-44.922
1789911309.533801,0.000,37.109,-79.590,-31.738
1789911309.537569,0.000,41.504,-91.309,-9.766
1789911309.541337,0.000,39.551,-95.703,-0.977
1789911309.545105,0.000,27.344,-110.352,-17.578
1789911309.550401,-77.637,20.020,-104.980,-21.973
1789911309.554173,17.090,28.320,-95.215,-1.465
1789911309.557944,62.500,33.691,-104.980,21.484
1789911309.561715,-20.020,29.297,-107.910,-0.977
1789911309.565486,-57.129,28.320,-111.328,-17.578
1789911309.569258,3.906,29.297,-121.094,-2.930
1789911309.573029,67.383,22.949,-127.441,22.461
1789911309.576800,13.184,8.301,-148.926,13.672
1789911309.580572,-72.266,-6.836,-165.527,-29.785
1789911309.584343,-39.062,-5.859,-166.992,-33.691
1789911309.588114,49.316,-6.348,-170.410,-14.648
1789911309.591886,30.273,-10.742,-178.223,-13.672
1789911309.597145,-66.406,-10.742,0.000,-43.457
1789911309.600919,-66.895,-12.207,0.000,-59.570
1789911309.604694,15.137,-20.020,0.000,-45.410
1789911309.608468,13.672,-27.344,0.000,-42.480
1789911309.612243,-91.309,-28.809,0.000,-53.223
1789911309.616018,-106.445,-31.250,0.000,-64.941
1789911309.619792,-33.691,-37.598,0.000,-59.082
1789911309.623567,15.137,-33.203,0.000,-26.855
1789911309.627341,-65.430,-32.715,0.000,-46.387
1789911309.631116,-122.559,-41.992,0.000,-74.707
1789911309.634890,-57.129,-45.898,0.000,-68.359
1789911309.638665,15.137,-36.621,0.000,-41.504
1789911309.643688,-32.227,-26.367,-65.918,-38.574
1789911309.647466,-105.469,-30.762,-69.824,-61.523
1789911309.651243,-75.684,-32.227,-61.523,-54.199
1789911309.655020,16.113,-22.461,-44.922,-28.320
1789911309.658798,1.465,-21.973,-36.133,-29.785
1789911309.662575,-112.793,-33.691,-21.973,-64.453
1789911309.666352,-104.980,-38.086,-20.020,-56.152
1789911309.670129,-0.488,-24.414,-3.906,-21.973
1789911309.673906,12.207,-25.879,18.555,-26.367
1789911309.677684,-79.102,-34.180,10.742,-45.898
1789911309.681461,-97.656,-29.785,19.531,-51.758
1789911309.685238,-38.086,-41.992,49.316,-46.387
1789911309.690179,7.324,-53.711,28.809,-38.574
1789911309.693958,-69.824,-64.941,-14.648,-66.895
1789911309.697738,-135.742,-75.684,-0.977,-93.750
1789911309.701518,-81.055,-80.078,23.926,-92.285
1789911309.705297,-6.836,-75.684,28.809,-71.289
1789911309.709077,-52.246,-78.613,26.855,-75.195
1789911309.712857,-135.254,-79.590,29.785,-94.727
1789911309.716636,-107.910,-61.523,45.410,-81.543
1789911309.720416,-22.461,-55.664,51.270,-62.012
1789911309.724196,-30.762,-73.242,36.133,-60.059
1789911309.727975,-130.859,-77.637,33.691,-88.867
1789911309.731755,-142.090,-69.824,40.039,-91.797
1789911309.736594,-33.203,-62.988,55.664,-54.199
1789911309.740376,4.883,-63.477,51.758,-35.156
1789911309.744158,-101.562,-72.754,54.199,-59.570
1789911309.747940,-129.395,-66.406,65.430,-67.383
1789911309.751721,-51.758,-64.941,60.059,-49.805
1789911309.755503,6.348,-68.848,60.547,-26.367
1789911309.759285,-59.570,-72.266,55.176,-47.363
1789911309.763067,-131.836,-64.941,58.594,-81.055
1789911309.766849,-85.449,-54.688,58.594,-66.406
1789911309.770631,3.418,-58.105,66.406,-37.109
1789911309.774412,-28.320,-54.199,74.219,-41.992
1789911309.778194,-112.305,-49.316,70.801,-66.406
1789911309.783775,-96.680,-49.805,69.824,-69.824
1789911309.787560,-3.906,-44.434,71.777,-38.574
1789911309.791346,10.742,-39.551,79.102,-20.508
1789911309.795131,-95.215,-44.434,67.871,-60.547
1789911309.798916,-111.816,-45.898,56.152,-70.312
1789911309.802702,-11.230,-27.832,63.477,-28.320
1789911309.806487,38.086,-24.414,63.477,-15.137
1789911309.810272,-60.547,-30.273,61.523,-50.293
1789911309.814058,-111.328,-35.645,51.270,-73.730
1789911309.817843,-53.711,-49.316,43.945,-64.453
1789911309.821629,14.160,-45.898,46.875,-41.504
1789911309.825414,-41.016,-38.086,49.316,-39.551
1789911309.830790,-114.746,-35.156,60.059,-66.895
1789911309.834579,-58.105,-25.879,70.801,-58.105
1789911309.838367,23.438,-19.043,69.336,-30.762
1789911309.842156,-4.883,-18.066,54.688,-34.180
1789911309.845944,-96.680,-30.273,52.246,-61.035
1789911309.849733,-87.891,-40.527,61.035,-71.777
1789911309.853521,7.812,-26.855,58.105,-39.062
1789911309.857310,25.879,-28.809,55.176,-24.902
1789911309.861098,-74.707,-50.781,44.434,-52.246
1789911309.864887,-108.398,-49.805,32.715,-64.453
1789911309.868675,-21.484,-37.598,43.457,-40.039
1789911309.872463,43.457,-35.156,46.387,-9.766
1789911309.877822,0.000,-39.551,32.715,-35.156
1789911309.881613,0.000,-41.992,33.203,-57.617
1789911309.885405,0.000,-44.922,37.109,-43.945
1789911309.889196,0.000,-50.293,29.297,-21.973
1789911309.892987,0.000,-44.922,18.066,-30.762
1789911309.896779,0.000,-43.457,21.973,-61.035
1789911309.900570,0.000,-42.969,47.852,-67.383
1789911309.904362,0.000,-36.621,35.645,-29.297
1789911309.908153,0.000,-32.227,17.578,-11.230
1789911309.911945,0.000,-27.832,30.762,-54.199
1789911309.915736,0.000,-29.297,30.273,-51.758
1789911309.919528,0.000,-29.785,31.250,-30.762
1789911309.924694,27.832,-30.273,35.156,-27.832
1789911309.928488,-61.035,-22.461,31.738,-40.527
1789911309.932282,-84.473,-20.020,32.715,-45.898
1789911309.936076,-13.184,-29.297,36.621,-27.344
1789911309.939870,31.250,-36.621,25.391,-16.602
1789911309.943664,-47.852,-45.898,19.531,-48.828
1789911309.947458,-97.656,-38.086,31.738,-56.152
1789911309.951252,-39.062,-29.785,23.926,-24.902
1789911309.955046,38.086,-32.715,37.598,-27.344
1789911309.958840,-1.465,-31.738,39.551,-48.828
1789911309.962634,-83.496,-22.461,19.043,-64.453
1789911309.966428,-62.500,-20.508,30.273,-62.012
1789911309.971488,34.180,-20.996,39.551,-24.902
1789911309.975284,30.762,-21.973,38.574,-17.578
1789911309.979080,-84.961,-34.668,29.785,-60.059
1789911309.982877,-95.215,-29.297,34.668,-65.430
1789911309.986673,2.930,-16.602,36.133,-42.969
1789911309.990469,41.504,-18.066,20.996,-26.855
1789911309.994266,-59.082,-20.996,9.277,-58.105
1789911309.998062,-107.910,-31.250,7.324,-80.566
1789911310.001858,-40.527,-32.715,21.484,-53.223
1789911310.005655,36.133,-20.020,21.973,-37.598
1789911310.009451,-14.648,-19.531,12.207,-54.199
1789911310.013247,-97.656,-30.273,4.883,-64.941
1789911310.018166,0.000,-39.551,-5.371,-67.383
1789911310.021964,0.000,-34.668,-14.160,-41.504
1789911310.025763,0.000,-32.715,-32.227,-32.715
1789911310.029561,0.000,-35.156,-28.320,-64.453
1789911310.033359,0.000,-33.203,-23.926,-57.129
1789911310.037158,0.000,-36.133,-41.016,-47.852
1789911310.040956,0.000,-31.738,2.441,-27.344
1789911310.044754,0.000,-28.320,-270.020,-46.387
1789911310.048552,0.000,-30.273,-844.238,-55.664
1789911310.052351,0.000,-24.902,-1000.000,-38.574
1789911310.056149,0.000,-26.855,-983.887,-32.227
1789911310.059947,0.000,-29.297,-1000.000,-46.875
1789911310.064896,-112.793,-29.297,-1000.000,-71.289
1789911310.068696,-44.922,-30.762,-1000.000,-62.500
1789911310.072496,29.297,-26.855,-1000.000,-40.039
1789911310.076297,-35.645,-23.926,-1000.000,-54.199
1789911310.080097,-116.211,-21.484,-1000.000,-74.219
1789911310.083897,-67.383,-18.066,-1000.000,-51.270
1789911310.087698,30.762,-8.301,-1000.000,-14.648
1789911310.091498,8.301,-5.371,-1000.000,-29.297
1789911310.095298,-87.402,3.418,-1000.000,-50.781
1789911310.099098,-96.680,7.324,-998.047,-45.898
1789911310.102899,-25.391,-9.277,-990.723,-45.898
1789911310.106699,-3.906,-11.719,-964.355,-39.062
1789911310.111407,-100.586,-5.371,-913.086,-59.082
1789911310.115208,-133.789,-1.953,-860.840,-84.473
1789911310.119010,-55.176,13.672,-803.711,-83.008
1789911310.122812,-16.602,10.742,-750.488,-72.754
1789911310.126614,-133.789,7.324,-697.754,-125.488
1789911310.130416,-230.957,15.137,-661.133,-178.223
1789911310.134218,-179.688,32.227,-613.770,-176.270
1789911310.138019,-106.445,45.898,-549.316,-175.293
1789911310.141821,-171.387,47.852,-521.484,-196.289
1789911310.145623,-262.695,59.082,-495.605,-223.145
1789911310.149425,-249.512,68.359,-465.820,-229.492
1789911310.153227,-160.645,75.684,-441.406,-195.801
1789911310.158597,-157.227,66.406,-421.875,-178.711
1789911310.162402,-249.512,46.875,-401.367,-203.125
1789911310.166206,-227.539,39.062,-372.559,-195.312
1789911310.170011,-128.906,25.391,-369.141,-154.297
1789911310.173815,-80.078,23.926,-366.211,-120.605
1789911310.177619,-145.020,23.438,-343.262,-131.348
1789911310.181424,-175.781,6.348,-323.242,-135.254
1789911310.185228,-86.914,-1.953,-317.383,-94.727
1789911310.189033,-7.324,-4.395,-307.129,-50.781
1789911310.192837,-67.871,-10.254,-307.129,-54.199
1789911310.196642,-132.324,-16.113,-304.688,-69.824
1789911310.200446,-66.406,-22.461,-300.293,-51.270
1789911310.206373,21.484,-30.762,-297.852,-30.762
1789911310.210181,-21.973,-33.203,-297.363,-34.668
1789911310.213989,-100.586,-37.109,-293.945,-44.434
1789911310.217796,-70.312,-42.480,-287.598,-39.062
1789911310.221604,24.902,-34.180,-284.180,-20.996
1789911310.225412,35.156,-33.203,-276.855,-3.906
1789911310.229220,-63.965,-38.574,-280.273,-20.508
1789911310.233028,-80.078,-40.527,-277.832,-31.738
1789911310.236836,10.742,-44.922,-265.137,-0.977
1789911310.240644,48.828,-45.898,-273.438,21.973
1789911310.244452,-33.691,-54.199,-271.484,-12.207
1789911310.248260,-57.617,-62.012,-256.836,-22.949
1789911310.253330,17.090,-55.664,0.000,-3.906
1789911310.257139,71.289,-61.035,0.000,12.207
1789911310.260949,15.625,-61.035,0.000,8.301
1789911310.264759,-47.363,-57.617,0.000,-8.301
1789911310.268569,-17.578,-61.035,0.000,3.906
1789911310.272379,71.289,-60.059,0.000,38.574
1789911310.276189,56.641,-55.176,0.000,31.738
1789911310.279999,-35.156,-50.781,0.000,-0.977
1789911310.283809,-11.230,-41.504,0.000,14.648
1789911310.287619,76.660,-34.180,0.000,42.480
1789911310.291429,82.031,-41.016,0.000,40.527
1789911310.295239,-14.160,-44.922,0.000,20.020
1789911310.300236,-42.480,-31.738,-188.965,20.508
1789911310.304048,41.016,-30.762,-179.199,27.832
1789911310.307860,97.168,-41.016,-169.434,42.969
1789911310.311672,14.648,-43.945,-171.875,24.902
1789911310.315484,-36.133,-37.598,-172.852,4.395
1789911310.319295,14.648,-40.039,-172.363,15.625
1789911310.323107,92.773,-43.457,-166.504,36.133
1789911310.326919,36.621,-37.598,-175.781,22.949
1789911310.330731,-60.059,-36.133,-168.945,8.789
1789911310.334543,-19.531,-31.738,-158.203,12.207
1789911310.338354,59.570,-33.691,-164.551,21.973
1789911310.342166,28.320,-41.504,-168.945,22.949
1789911310.346979,-54.688,-41.992,-187.012,-4.395
1789911310.350792,-51.270,-34.668,-174.316,-15.137
1789911310.354605,29.297,-37.598,-131.836,14.160
1789911310.358419,58.594,-37.109,-132.812,29.297
1789911310.362232,-29.785,-30.273,-158.203,-2.930
1789911310.366045,-54.688,-30.762,-154.297,-19.043
1789911310.369859,7.324,-34.180,-142.090,-14.160
1789911310.373672,51.758,-31.738,-138.184,-0.488
1789911310.377485,-28.320,-33.691,-141.602,-17.578
1789911310.381299,-92.285,-37.109,-142.090,-35.156
1789911310.385112,-28.809,-33.691,-132.324,-11.719
1789911310.388925,47.852,-31.738,-128.418,24.902
1789911310.393684,-3.906,-32.227,-141.113,6.836
1789911310.397499,-90.820,-37.109,-142.578,-20.508
1789911310.401314,-53.711,-35.645,-128.418,-10.742
1789911310.405128,35.156,-36.621,-132.324,-1.953
1789911310.408943,23.438,-43.457,-117.676,-4.395
1789911310.412758,-73.730,-45.410,-117.676,-26.367
1789911310.416573,-76.172,-46.875,-135.742,-21.484
1789911310.420388,19.043,-38.086,-121.094,6.836
1789911310.424202,59.570,-30.762,-125.000,8.789
1789911310.428017,-33.691,-41.992,-133.789,-10.254
1789911310.431832,-78.613,-48.828,-118.164,-14.648
1789911310.435647,-12.207,-44.922,-103.516,-10.742
1789911310.440315,58.594,-39.551,-94.727,3.906
1789911310.444131,-6.836,-43.945,-93.750,-9.766
1789911310.447948,-83.984,-48.340,-96.680,-38.086
1789911310.451764,-40.039,-46.875,-90.332,-35.156
1789911310.455580,48.828,-51.270,-86.914,-9.277
1789911310.459396,8.301,-56.641,-97.656,-20.508
1789911310.463212,-95.703,-58.105,-104.492,-44.922
1789911310.467028,-81.543,-57.129,-90.820,-41.504
1789911310.470844,20.508,-52.246,-97.656,-21.973
1789911310.474660,28.809,-54.688,-105.469,-14.648
1789911310.478476,-69.336,-53.711,-104.980,-38.574
1789911310.482292,-81.055,-48.340,-116.699,-50.781
1789911310.486900,-1.953,-45.410,-99.609,-35.156
1789911310.490717,41.016,-41.504,-94.238,-18.555
1789911310.494535,-41.504,-43.945,-93.262,-49.805
1789911310.498352,-84.473,-43.945,-86.426,-57.617
1789911310.502169,-20.020,-41.016,-82.031,-38.574
1789911310.505986,48.340,-44.434,-77.148,-15.625
1789911310.509803,-16.602,-52.246,-83.496,-28.320
1789911310.513621,-92.773,-43.457,-80.078,-55.664
1789911310.517438,-48.340,-40.039,-79.102,-50.293
1789911310.521255,39.551,-43.457,-76.172,-22.949
1789911310.525072,32.227,-37.109,-62.500,-9.766
1789911310.528889,-67.871,-32.227,-41.504,-49.316
1789911310.534055,0.000,-37.109,-38.086,-48.340
1789911310.537874,0.000,-31.738,-43.457,-13.672
1789911310.541693,0.000,-27.344,-43.457,-12.695
1789911310.545513,0.000,-32.227,-48.340,-36.133
1789911310.549332,0.000,-37.598,-53.223,-48.340
1789911310.553151,0.000,-28.320,-43.945,-11.230
1789911310.556970,0.000,-25.391,-38.086,9.277
1789911310.560789,0.000,-30.273,-49.805,-28.809
1789911310.564608,0.000,-25.391,-47.363,-41.504
1789911310.568428,0.000,-31.738,-36.621,-23.926
1789911310.572247,0.000,-36.133,-24.414,-10.254
1789911310.576066,0.000,-34.180,-30.273,-25.879
1789911310.581738,-88.379,-38.086,-41.504,-42.480
1789911310.585560,-65.430,-43.457,-37.598,-42.480
1789911310.589382,24.902,-41.504,-14.160,-24.414
1789911310.593204,35.645,-29.785,-14.648,-10.742
1789911310.597025,-68.359,-32.715,-36.621,-23.438
1789911310.600847,-80.566,-40.527,-33.203,-36.621
1789911310.604669,16.602,-36.133,-32.715,-38.086
1789911310.608491,38.086,-35.645,-34.668,-13.672
1789911310.612312,-57.617,-37.598,-41.504,-20.020
1789911310.616134,-89.355,-36.133,-36.621,-34.180
1789911310.619956,-19.043,-27.832,-19.043,-24.414
1789911310.623778,29.785,-26.855,-22.461,-7.324
1789911310.628692,-53.223,-28.809,-34.180,-26.367
1789911310.632515,-105.957,-27.344,-19.531,-45.410
1789911310.636338,-50.781,-28.320,-24.902,-36.621
1789911310.640162,32.227,-28.320,-43.457,-8.789
1789911310.643985,8.301,-29.297,-35.156,-16.113
1789911310.647808,-71.777,-34.668,-27.344,-39.551
1789911310.651631,-55.176,-40.039,-20.508,-25.391
1789911310.655455,35.645,-34.668,-29.297,-8.789
1789911310.659278,28.320,-32.715,-33.691,-11.719
1789911310.663101,-70.801,-32.715,-28.809,-25.879
1789911310.666924,-70.312,-34.668,-33.691,-41.992
1789911310.670748,12.207,-37.598,-41.504,-16.113
1789911310.675586,43.945,-33.691,-43.945,3.906
1789911310.679411,-48.828,-27.344,-50.293,-22.949
1789911310.683236,-66.895,-25.879,-60.059,-26.367
1789911310.687060,-6.836,-34.180,-35.156,-9.766
1789911310.690885,21.484,-37.598,-24.414,-21.484
1789911310.694710,-32.227,-33.203,-38.574,-33.691
1789911310.698534,-101.074,-37.598,-35.645,-41.016
1789911310.702359,-57.617,-45.410,-32.715,-22.949
1789911310.706183,37.598,-41.016,-12.695,9.277
1789911310.710008,8.789,-36.133,-14.160,-15.137
1789911310.713833,-83.008,-41.992,-24.902,-41.016
1789911310.717658,-75.195,-47.852,-27.832,-31.738
1789911310.722409,13.672,-39.551,-29.297,-7.324
1789911310.726235,26.855,-36.133,-19.043,3.906
1789911310.730061,-71.289,-43.945,-22.461,-16.602
1789911310.733887,-94.727,-46.387,-30.762,-36.133
1789911310.737713,-9.277,-34.668,-21.484,-22.461
1789911310.741539,48.828,-29.297,-20.996,4.883
1789911310.745365,-37.109,-38.086,-18.066,-20.508
1789911310.749191,-81.055,-41.504,-17.578,-34.180
1789911310.753016,-14.648,-35.156,-23.438,-28.809
1789911310.756842,54.199,-26.367,-20.508,-14.160
1789911310.760668,6.348,-26.367,-33.203,-18.066
1789911310.764494,-81.055,-40.039,-32.715,-44.922
1789911310.769136,-57.617,-43.457,-18.555,-38.574
1789911310.772963,42.480,-31.738,-18.066,3.906
1789911310.776790,34.668,-28.809,-33.203,0.000
1789911310.780617,-71.289,-34.668,-39.551,-42.969
1789911310.784444,-58.594,-32.227,-24.902,-40.039
1789911310.788271,25.391,-32.715,-21.973,-12.207
1789911310.792098,38.574,-37.598,-40.039,-1.953
1789911310.795925,-45.410,-34.668,-36.621,-24.414
1789911310.799752,-65.918,-27.344,-22.949,-31.738
1789911310.803579,8.789,-25.879,-0.488,-10.742
1789911310.807406,59.570,-30.273,-16.113,-3.418
1789911310.811233,-24.414,-34.180,-33.203,-20.996
1789911310.815827,-86.426,-34.668,-19.043,-41.504
1789911310.819655,-32.227,-31.738,-14.648,-33.203
1789911310.823483,44.922,-21.484,-7.324,-4.395
1789911310.827311,7.812,-17.578,-4.883,-17.578
1789911310.831139,-76.172,-26.367,-7.324,-40.527
1789911310.834967,-50.293,-26.367,-12.695,-32.227
1789911310.838795,40.039,-24.902,-6.348,-9.277
1789911310.842623,21.973,-21.973,-0.977,-14.648
1789911310.846451,-74.707,-25.879,-2.930,-40.039
1789911310.850279,-70.312,-30.273,-8.301,-32.227
1789911310.854107,18.555,-26.855,0.000,-5.371
1789911310.857935,54.199,-31.250,-5.371,7.324
1789911310.863021,-38.086,-31.738,-22.949,-21.484
1789911310.866851,-79.102,-30.762,-25.391,-37.598
1789911310.870680,-20.020,-30.273,-28.809,-18.555
1789911310.874510,35.156,-33.203,-17.578,-6.836
1789911310.878339,-23.438,-39.551,-24.902,-20.020
1789911310.882169,-91.309,-41.504,-44.922,-36.133
1789911310.885998,-57.617,-40.527,-38.574,-37.109
1789911310.889828,25.391,-39.062,-29.785,-5.859
1789911310.893658,-2.930,-40.039,-25.391,-19.043
1789911310.897487,-79.102,-28.809,-27.344,-41.016
1789911310.901317,-57.617,-25.879,-21.973,-39.062
1789911310.905147,31.250,-27.832,-16.113,-31.250
1789911310.910192,0.000,-26.367,0.000,-19.531
1789911310.914023,0.000,-24.414,0.000,-39.062
1789911310.917854,0.000,-27.344,0.000,-44.922
1789911310.921685,0.000,-27.832,0.000,-18.555
1789911310.925516,0.000,-22.461,0.000,0.488
1789911310.929348,0.000,-21.973,0.000,-17.578
1789911310.933179,0.000,-12.207,0.000,-31.250
1789911310.937010,0.000,-11.230,0.000,-20.508
1789911310.940841,0.000,-24.414,0.000,-7.812
1789911310.944672,0.000,-30.273,0.000,-24.902
1789911310.948503,0.000,-28.320,0.000,-48.828
1789911310.952334,0.000,-22.461,0.000,-41.504
1789911310.955754,37.109,-25.391,-28.320,-19.531
1789911310.959585,-52.246,-29.785,-40.039,-26.367
1789911310.963415,-64.941,-32.715,-33.691,-62.012
1789911310.967246,10.742,-34.668,-21.973,-55.664
1789911310.971077,62.012,-27.832,-20.020,-29.297
1789911310.974907,-14.648,-23.438,-26.367,-20.508
1789911310.978738,-56.152,-33.691,-33.691,-41.504
1789911310.982569,-0.977,-39.551,-35.156,-60.547
1789911310.986399,40.527,-39.551,-38.574,-27.832
1789911310.990230,-19.043,-42.969,-37.109,1.953
1789911310.994061,-89.844,-36.133,-31.738,-26.367
1789911310.997891,-61.035,-32.715,-14.648,-52.734
1789911311.002708,-43.457,-35.156,-20.020,-35.645
1789911311.006540,38.574,-37.109,-35.156,-15.625
1789911311.010372,-7.324,-38.574,-24.414,-22.461
1789911311.014204,-93.262,-28.809,-27.832,-46.875
1789911311.018036,-63.965,-27.344,-39.062,-63.477
1789911311.021868,32.227,-27.344,-28.809,-29.785
1789911311.025699,26.367,-28.320,-26.367,-18.066
1789911311.029531,-82.520,-37.598,-34.180,-41.016
1789911311.033363,-79.590,-33.691,-29.297,-38.086
1789911311.037195,19.531,-20.508,-19.043,-26.855
1789911311.041027,45.410,-20.020,-20.508,-14.648
1789911311.044858,-55.176,-17.578,-20.996,-27.832
1789911311.049625,-90.332,-23.438,-18.555,-37.109
1789911311.053458,8.301,-24.902,-27.832,-17.090
1789911311.057291,62.012,-25.879,-11.719,-3.418
1789911311.061124,-51.758,-32.227,-19.043,-52.246
1789911311.064957,-119.141,-37.109,-41.504,-70.801
1789911311.068790,-45.898,-46.387,-27.832,-41.016
1789911311.072623,26.855,-44.434,-32.227,-23.438
1789911311.076456,-21.973,-42.969,-32.715,-22.949
1789911311.080289,-103.027,-42.969,-30.273,-55.664
1789911311.084122,-68.848,-37.109,-29.297,-65.918
1789911311.087955,8.789,-36.133,-29.785,-35.156
1789911311.091788,1.465,-38.086,-34.180,-33.203
1789911311.096447,-84.473,-43.945,-32.227,-59.082
1789911311.100281,-99.609,-46.875,-23.926,-56.152
1789911311.104115,-10.254,-42.480,-20.996,-19.043
1789911311.107949,37.598,-44.434,-27.832,-3.906
1789911311.111783,-57.129,-47.363,-34.668,-35.156
1789911311.115617,-100.586,-49.805,-35.156,-54.199
1789911311.119451,-21.484,-40.039,-18.066,-37.598
1789911311.123285,52.734,-28.320,-18.555,-5.371
1789911311.127119,-16.602,-33.203,-11.719,-31.250
1789911311.130953,-91.797,-37.109,-20.508,-59.570
1789911311.134786,-43.945,-36.133,-35.645,-50.781
1789911311.138620,40.039,-35.156,-23.438,-14.160
1789911311.143209,1.953,-35.156,-22.461,-10.254
1789911311.147044,-89.844,-31.738,-24.902,-42.969
1789911311.150879,-68.848,-22.461,-22.461,-33.203
1789911311.154714,26.855,-17.578,-17.090,-9.277
1789911311.158549,21.484,-27.832,-27.344,-15.137
1789911311.162384,-79.590,-40.527,-31.250,-37.109
1789911311.166218,-90.332,-37.109,-17.090,-35.156
1789911311.170053,-13.672,-35.645,-14.648,-21.973
1789911311.173888,41.016,-34.668,-14.648,-11.230
1789911311.177723,-45.898,-30.762,-24.414,-30.273
1789911311.181558,-99.609,-32.715,-31.738,-44.922
1789911311.185392,-35.645,-31.738,-22.949,-36.621
1789911311.189924,20.508,-36.133,-24.902,-15.625
1789911311.193760,-33.203,-35.645,-30.762,-26.367
1789911311.197595,-115.234,-32.227,-30.273,-57.617
1789911311.201431,-76.660,-32.715,-30.762,-49.316
1789911311.205267,33.203,-22.949,-20.508,-22.949
1789911311.209102,8.301,-21.484,-25.879,-23.926
1789911311.212938,-99.609,-27.832,-37.598,-46.875
1789911311.216774,-83.496,-22.949,-31.738,-65.918
1789911311.220609,16.113,-18.555,-22.949,-41.016
1789911311.224445,36.133,-20.996,-29.297,-13.184
1789911311.228281,-61.523,-22.949,-33.203,-46.875
1789911311.232116,-88.379,-12.207,-28.320,-56.641
1789911311.237112,-8.301,-18.555,-20.020,-21.484
1789911311.240948,45.410,-26.855,-22.949,-4.395
1789911311.244785,-45.898,-29.297,-25.879,-34.180
1789911311.248622,-109.375,-31.738,-16.602,-46.875
1789911311.252459,-53.711,-35.645,-13.184,-23.926
1789911311.256296,27.832,-42.480,-22.461,3.906
1789911311.260133,-23.438,-36.133,-22.949,-16.602
1789911311.263970,-109.863,-36.133,-20.020,-47.852
1789911311.267807,-72.266,-37.598,-7.324,-37.598
1789911311.271644,26.367,-29.297,-4.395,-11.230
1789911311.275481,23.438,-24.414,-22.461,-13.184
1789911311.279318,-79.590,-27.832,-26.367,-43.457
1789911311.284198,-83.984,-22.461,-23.438,-40.039
1789911311.288036,7.324,-14.648,-20.508,-15.137
1789911311.291874,30.762,-13.672,-22.461,-5.371
1789911311.295712,-71.777,-11.230,-29.785,-32.715
1789911311.299551,-90.332,-13.672,-22.949,-41.016
1789911311.303389,-7.324,-17.578,-27.344,-18.066
1789911311.307227,29.297,-21.973,-41.016,-1.465
1789911311.311065,-38.574,-15.137,-42.969,-24.414
1789911311.314903,-88.379,-16.602,-46.875,-47.363
1789911311.318741,-36.133,-22.461,-39.062,-22.461
1789911311.322579,44.922,-12.207,-28.320,9.277
1789911311.326417,6.836,-12.695,-35.645,-12.207
1789911311.331233,-83.496,-16.602,-50.293,-45.410
1789911311.335073,-61.523,-18.555,-38.086,-26.367
1789911311.338912,40.527,-17.090,-38.086,-15.137
1789911311.342751,42.969,-21.484,-65.430,-21.484
1789911311.346590,-67.383,-27.344,-70.801,-38.086
1789911311.350429,-96.680,-27.344,-64.453,-47.363
1789911311.354269,-17.090,-22.461,-52.734,-36.133
1789911311.358108,37.109,-18.555,-48.828,-11.230
1789911311.361947,-46.875,-27.344,-70.801,-27.832
1789911311.365786,-97.168,-30.762,-80.078,-48.828
1789911311.369626,-36.621,-27.832,-65.430,-43.945
1789911311.373465,28.809,-28.809,-65.430,-26.855
1789911311.379208,-24.414,-28.809,-64.453,-31.738
1789911311.383049,-92.285,-32.227,-67.383,-54.199
1789911311.386891,-52.246,-28.320,-68.848,-45.410
1789911311.390732,29.297,-30.273,-68.359,-17.090
1789911311.394573,4.395,-31.738,-74.707,-28.809
1789911311.398415,-103.516,-24.414,-80.566,-67.871
1789911311.402256,-97.656,-27.832,-70.312,-69.336
1789911311.406097,4.395,-33.203,-64.941,-27.832
1789911311.409938,20.020,-29.785,-64.453,-15.137
1789911311.413780,-79.590,-29.785,-60.547,-57.129
1789911311.417621,-90.820,-24.902,-79.102,-63.965
1789911311.421462,-8.789,-22.949,-81.543,-34.180
1789911311.426482,29.297,-20.508,0.000,-10.254
1789911311.430325,-50.781,-19.531,0.000,-26.367
1789911311.434168,-99.121,-30.762,0.000,-34.180
1789911311.438010,-35.645,-32.715,0.000,-13.184
1789911311.441853,51.758,-24.414,0.000,-9.277
1789911311.445695,11.719,-20.020,0.000,-16.113
1789911311.449538,-70.312,-21.484,0.000,-28.809
1789911311.453380,-47.852,-26.367,0.000,-23.438
1789911311.457223,32.715,-29.297,0.000,-13.184
1789911311.461066,34.180,-31.738,0.000,-7.812
1789911311.464908,-52.246,-32.227,0.000,-41.504
1789911311.468751,-62.500,-22.949,0.000,-39.551
1789911311.473782,14.160,-25.879,-52.734,-8.301
1789911311.477626,32.227,-30.273,-38.574,-4.395
1789911311.481469,-60.547,-34.180,-48.340,-27.344
1789911311.485313,-79.102,-37.109,-68.359,-42.969
1789911311.489157,-7.812,-40.039,-55.176,-28.809
1789911311.493001,46.387,-36.621,-60.547,-8.789
1789911311.496845,-24.414,-34.180,-75.684,-43.945
1789911311.500689,-91.309,-42.480,-69.824,-57.617
1789911311.504533,-42.480,-39.551,-59.082,-29.785
1789911311.508376,35.645,-27.832,-57.129,-10.742
1789911311.512220,-9.277,-34.180,-65.918,-18.555
1789911311.516064,-90.820,-36.621,-68.848,-45.898
1789911311.520552,-62.012,-30.273,-59.570,-42.969
1789911311.524396,27.344,-30.273,-58.594,-19.531
1789911311.528241,23.438,-31.738,-60.059,-24.902
1789911311.532085,-80.566,-28.809,-53.223,-49.805
1789911311.535930,-84.961,-29.785,-52.734,-58.105
1789911311.539774,1.465,-35.156,-52.734,-35.645
1789911311.543619,41.504,-32.715,-54.688,-2.930
1789911311.547463,-45.898,-29.785,-45.410,-38.574
1789911311.551308,-92.285,-28.320,-45.410,-56.641
1789911311.555153,-21.484,-25.391,-59.570,-19.043
1789911311.558997,41.504,-26.367,-57.129,0.488
1789911311.562842,-25.879,-26.855,-56.152,-20.996
1789911311.567262,-98.633,-30.273,-49.316,-52.246
1789911311.571107,-57.617,-31.250,-53.223,-34.180
1789911311.574952,33.203,-22.949,-54.688,-18.066
1789911311.578797,-1.465,-25.391,-54.199,-31.738
1789911311.582643,-95.703,-29.785,-62.988,-44.434
1789911311.586488,-83.008,-41.504,-73.242,-48.828
1789911311.590333,11.719,-43.945,-67.871,-17.578
1789911311.594178,29.785,-35.645,-61.035,-9.766
1789911311.598023,-77.637,-42.969,-64.453,-40.039
1789911311.601868,-101.074,-46.875,-68.359,-39.551
1789911311.605713,-13.184,-43.457,-62.500,-17.090
1789911311.609558,34.180,-35.645,-57.617,0.488
1789911311.613898,-50.293,-36.621,-58.105,-18.555
1789911311.617743,-93.262,-41.016,-55.664,-39.062
1789911311.621589,-27.344,-40.527,-53.711,-20.020
1789911311.625435,38.086,-39.062,-54.199,-6.836
1789911311.629281,-26.367,-34.668,-57.617,-27.344
1789911311.633126,-98.633,-36.621,-52.734,-25.391
1789911311.636972,-54.199,-35.156,-41.504,-23.926
1789911311.640817,27.832,-30.762,-52.246,-25.391
1789911311.644663,1.465,-31.738,-54.199,-22.949
1789911311.648509,-77.637,-34.180,-40.527,-31.738
1789911311.652354,-57.617,-34.668,-38.086,-37.598
1789911311.656200,19.531,-40.039,-41.504,-29.785
1789911311.660953,26.855,-42.969,-42.969,-17.578
1789911311.664800,-65.430,-40.039,-48.340,-42.480
1789911311.668646,-84.961,-37.598,-41.504,-45.898
1789911311.672493,-8.789,-34.668,-31.250,-13.184
1789911311.676340,53.223,-35.645,-26.855,16.602
1789911311.680186,-30.273,-39.551,-39.062,-24.902
1789911311.684033,-101.562,-47.363,-50.781,-59.570
1789911311.687879,-38.574,-45.898,-44.922,-27.344
1789911311.691726,36.621,-43.945,-40.039,-8.301
1789911311.695572,-10.254,-37.598,-50.293,-22.949
1789911311.699419,-91.797,-32.715,-53.223,-57.617
1789911311.703265,-60.059,-36.133,-43.945,-59.082
1789911311.708422,27.344,-35.156,-40.039,-25.879
1789911311.712270,15.137,-38.086,-40.527,-22.461
1789911311.716118,-75.684,-41.016,-35.156,-46.387
1789911311.719966,-76.172,-40.527,-34.668,-50.781
1789911311.723814,22.949,-33.691,-31.738,-21.484
1789911311.727661,42.480,-34.668,-28.320,-5.371
1789911311.731509,-61.523,-41.016,-44.434,-40.527
1789911311.735357,-92.285,-40.039,-55.176,-56.641
1789911311.739205,-15.625,-36.133,-46.875,-20.996
1789911311.743053,41.016,-34.180,-39.551,-6.348
1789911311.746901,-30.273,-39.062,-39.551,-37.109
1789911311.750749,-87.891,-36.133,-36.133,-51.270
1789911311.755359,-44.922,-36.133,-32.715,-37.109
1789911311.759208,36.621,-35.156,-31.250,-4.883
1789911311.763057,-1.953,-28.809,-32.227,-3.906
1789911311.766905,-91.309,-28.320,-37.598,-36.621
1789911311.770754,-69.824,-32.227,-39.551,-51.758
1789911311.774603,19.043,-27.832,-37.598,-18.066
1789911311.778451,22.461,-25.391,-49.316,-11.719
1789911311.782300,-72.266,-29.785,-62.012,-39.062
1789911311.786149,-53.711,-38.086,-40.039,-11.230
1789911311.789997,38.574,-21.484,-26.855,7.324
1789911311.793846,23.438,-10.742,-54.688,-22.461
1789911311.797694,-67.383,-23.926,-74.707,-44.922
1789911311.802232,0.000,-23.926,-80.566,-56.152
1789911311.806081,0.000,-21.973,-63.477,-50.781
1789911311.809930,0.000,-18.066,-58.105,-22.949
1789911311.813780,0.000,-31.250,-66.406,-35.156
1789911311.817629,0.000,-36.133,-69.336,-49.805
1789911311.821478,0.000,-25.391,-60.059,-43.457
1789911311.825328,0.000,-26.367,-53.711,-32.715
1789911311.829177,0.000,-27.832,-62.012,-25.391
1789911311.833026,0.000,-22.949,-51.758,-42.969
1789911311.836875,0.000,-14.648,-36.133,-48.828
1789911311.840725,0.000,-19.531,-42.969,-35.156
1789911311.844574,0.000,-23.926,-50.293,-21.484
1789911311.849056,-78.613,-29.297,-61.523,-51.758
1789911311.852906,-88.379,-29.785,-71.289,-64.941
1789911311.856756,-9.277,-18.555,-63.965,-31.250
1789911311.860606,35.645,-14.648,-41.992,-19.043
1789911311.864455,-43.945,-21.484,-53.711,-32.715
1789911311.868305,-82.031,-26.367,-68.848,-39.062
1789911311.872155,-20.020,-26.367,-57.617,-21.973
1789911311.876005,54.199,-24.414,-55.664,8.301
1789911311.879855,-4.395,-24.414,-53.711,-5.859
1789911311.883705,-83.496,-29.297,-52.246,-39.062
1789911311.887555,-48.340,-26.855,-51.270,-38.574
1789911311.891405,41.992,-25.391,-45.898,0.488
1789911311.896252,30.273,-30.762,-44.922,3.418
1789911311.900103,-60.547,-30.762,-54.199,-35.156
1789911311.903954,-52.734,-27.832,-54.199,-41.016
1789911311.907805,15.137,-34.180,-51.758,-18.555
1789911311.911656,35.645,-35.156,-58.594,7.812
1789911311.915507,-42.480,-34.180,-56.152,-13.672
1789911311.919357,-70.312,-38.086,-63.477,-30.762
1789911311.923208,-1.953,-41.504,-61.035,-10.742
1789911311.927059,51.270,-40.527,-50.293,-7.812
1789911311.930910,-20.020,-36.133,-53.711,-37.109
1789911311.934761,-79.102,-33.691,-50.781,-48.828
1789911311.938612,-24.414,-33.203,-48.340,-39.551
1789911311.943847,51.758,-33.203,-46.875,-16.602
1789911311.947699,-6.348,-42.969,-58.105,-28.809
1789911311.951551,-90.820,-42.969,-63.965,-56.641
1789911311.955404,-55.176,-37.598,-53.711,-36.133
1789911311.959256,33.203,-26.855,-49.316,-4.883
1789911311.963108,26.855,-23.438,-51.270,-11.719
1789911311.966960,-80.566,-26.367,-59.570,-42.969
1789911311.970812,-81.543,-22.949,-53.223,-41.992
1789911311.974664,14.648,-20.508,-40.039,-13.672
1789911311.978517,46.875,-15.625,-58.594,7.324
1789911311.982369,-40.039,-20.020,-57.129,-7.324
1789911311.986221,-80.078,-18.555,-43.457,-25.391
1789911311.990499,-13.672,-15.137,-48.828,-21.973
1789911311.994351,49.316,-18.555,-55.176,-5.371
1789911311.998204,-19.531,-22.461,-53.223,-22.461
1789911312.002056,-85.938,-24.902,-53.711,-50.781
1789911312.005909,-34.180,-29.297,-52.734,-35.645
1789911312.009762,47.852,-26.855,-48.828,-13.184
1789911312.013614,4.883,-21.484,-49.316,-27.832
1789911312.017467,-78.613,-16.113,-46.387,-46.875
1789911312.021319,-50.781,-14.160,-37.109,-34.180
1789911312.025172,24.414,-19.043,-33.203,-15.137
1789911312.029025,24.414,-16.602,-41.992,-14.648
1789911312.032877,-65.430,-16.113,-48.828,-41.016
1789911312.037533,-72.754,-20.996,-42.969,-38.086
1789911312.041386,-3.418,-24.902,-46.875,-20.996
1789911312.045239,20.508,-22.949,-45.898,-14.160
1789911312.049093,-62.988,-20.508,-37.598,-36.133
1789911312.052946,-98.145,-21.973,-50.781,-51.270
1789911312.056799,-26.367,-21.973,-52.734,-32.227
1789911312.060652,41.992,-20.508,-41.992,-0.488
1789911312.064506,-20.996,-20.020,-45.898,-18.066
1789911312.068359,-89.844,-16.113,-56.152,-38.574
1789911312.072212,-47.363,-9.277,-42.969,-27.832
1789911312.076066,34.180,-5.371,-29.297,-16.113
1789911312.079919,16.602,-8.301,-49.805,-23.926
1789911312.084524,-73.242,-14.160,-56.152,-45.410
1789911312.088378,-67.871,-18.066,-50.781,-45.410
1789911312.092232,16.113,-17.578,-41.016,-20.020
1789911312.096087,27.832,-22.949,-39.062,-10.742
1789911312.099941,-67.871,-30.762,-49.805,-43.457
1789911312.103795,-90.820,-39.551,-55.664,-50.781
1789911312.107649,-12.207,-32.715,-39.062,-24.902
1789911312.111502,34.180,-22.461,-26.855,-14.160
1789911312.115356,-43.945,-26.855,-37.109,-26.367
1789911312.119210,-96.680,-17.090,-37.598,-41.992
1789911312.123065,-39.062,-9.766,-30.762,-40.527
1789911312.126919,33.691,-16.113,-43.457,-12.207
1789911312.131477,-24.902,-19.531,-49.316,-26.367
1789911312.135331,-100.098,-26.855,-42.480,-56.152
1789911312.139186,-78.125,-36.621,-44.922,-50.781
1789911312.143041,0.000,-35.156,-42.480,-14.160
1789911312.146895,-4.395,-34.668,-47.852,-20.508
1789911312.150750,-105.957,-44.434,-54.688,-57.617
1789911312.154605,-97.656,-40.527,-48.340,-43.945
1789911312.158459,-3.418,-37.109,-32.715,-21.484
1789911312.162314,27.832,-33.203,-36.133,-10.742
1789911312.166169,-62.500,-32.227,-46.387,-35.156
1789911312.170023,-96.680,-35.156,-40.039,-57.129
1789911312.173878,-17.090,-37.109,-41.992,-48.340
1789911312.178328,45.410,-29.297,-38.574,-20.020
1789911312.182184,-30.273,-25.879,-35.645,-32.715
1789911312.186038,-98.633,-31.738,-43.945,-57.129
1789911312.189894,-46.875,-35.645,-45.898,-41.504
1789911312.193749,36.621,-38.574,-38.574,-20.996
1789911312.197604,-1.953,-40.527,-46.387,-29.297
1789911312.201459,-98.145,-41.992,-59.570,-65.430
1789911312.205315,-76.660,-39.551,-58.594,-31.738
1789911312.209170,16.113,-31.738,-50.293,5.371
1789911312.213025,14.160,-25.391,-51.270,-23.926
1789911312.216880,-75.195,-28.320,-58.105,-41.992
1789911312.220735,-78.613,-26.855,-53.711,-32.715
1789911312.225126,11.230,-21.973,-41.992,-12.207
1789911312.228982,38.574,-19.043,-46.875,1.953
1789911312.232837,-58.105,-26.855,-58.594,-22.949
1789911312.236693,-90.820,-28.809,-63.965,-41.504
1789911312.240549,-28.320,-21.973,-37.598,-20.996
1789911312.244405,29.785,-20.508,-37.109,3.418
1789911312.248260,-36.621,-24.414,-61.523,-25.879
1789911312.252116,-102.051,-29.297,-48.828,-45.410
1789911312.255971,-51.758,-31.738,-38.574,-32.227
1789911312.259827,30.762,-35.645,-41.992,-15.625
1789911312.263683,6.836,-29.297,-43.457,-3.418
1789911312.267539,-75.195,-29.297,-42.480,-28.320
1789911312.272286,-63.477,-31.250,-41.504,-34.180
1789911312.276142,21.484,-26.855,-41.504,-0.488
1789911312.279999,22.461,-30.762,-45.898,-7.812
1789911312.283855,-69.336,-39.062,-53.711,-44.922
1789911312.287712,-75.684,-45.898,-59.082,-41.992
1789911312.291568,-6.836,-48.340,-68.848,-16.113
1789911312.295425,31.738,-46.387,-65.430,6.836
1789911312.299281,-54.688,-39.551,-56.152,-14.648
1789911312.303138,-94.238,-27.344,-58.105,-44.434
1789911312.306994,-19.531,-26.855,-54.688,-38.574
1789911312.310850,39.551,-25.391,-58.594,-16.113
1789911312.314707,-21.973,-23.438,-58.105,-31.250
1789911312.318975,-91.797,-22.461,-47.363,-61.035
1789911312.322832,-50.781,-18.555,-54.199,-35.645
1789911312.326689,38.086,-21.973,-52.246,0.488
1789911312.330546,12.695,-27.344,-59.570,-12.695
1789911312.334403,-88.867,-28.320,-61.523,-41.992
1789911312.338259,-70.312,-29.785,-56.152,-37.598
1789911312.342116,17.578,-39.062,-60.059,-18.555
1789911312.345973,34.668,-40.039,-62.500,-20.020
1789911312.349830,-57.129,-35.645,-69.824,-48.828
1789911312.353687,-95.215,-41.992,-75.684,-57.617
1789911312.357543,2.441,-48.340,-77.637,-17.090
1789911312.361400,68.848,-43.457,-63.477,23.926
1789911312.366046,-63.965,-49.316,-60.059,-49.316
1789911312.369904,-138.672,-40.527,-75.195,-100.098
1789911312.373761,-62.012,-37.598,-64.941,-62.012
1789911312.377619,-3.906,-46.387,-52.246,-39.551
1789911312.381476,-54.199,-36.133,-62.500,-62.500
1789911312.385334,-131.348,-40.039,-49.316,-96.191
1789911312.389191,-114.258,-41.992,-45.898,-91.797
1789911312.393049,-13.672,-31.250,-50.293,-52.734
1789911312.396906,-8.789,-26.367,-42.969,-36.133
1789911312.400764,-108.398,-26.855,-52.246,-67.871
1789911312.404621,-108.398,-37.109,-60.059,-65.430
1789911312.408479,-18.555,-45.898,-59.570,-44.922
1789911312.413443,0.000,-31.738,-59.082,-28.320
1789911312.417302,0.000,-32.715,-58.105,-43.457
1789911312.421160,0.000,-50.781,-51.758,-69.336
1789911312.425019,0.000,-41.016,-45.410,-50.781
1789911312.428877,0.000,-37.598,-44.922,-34.668
1789911312.432735,0.000,-43.457,-51.270,-56.641
1789911312.436594,0.000,-41.504,-55.176,-82.031
1789911312.440452,0.000,-41.992,-58.594,-68.848
1789911312.444311,0.000,-43.945,-35.645,-24.414
1789911312.448169,0.000,-40.527,-43.457,-25.391
1789911312.452028,0.000,-36.621,-59.570,-54.199
1789911312.455886,0.000,-39.551,-47.363,-53.223
1789911312.460397,0.488,-34.668,-55.176,-20.996
1789911312.464256,-8.789,-26.367,-59.082,-20.020
1789911312.468115,-99.609,-32.227,-51.758,-40.039
1789911312.471974,-99.609,-30.273,-50.293,-48.828
1789911312.475833,-19.043,-34.180,-56.641,-49.316
1789911312.479692,18.066,-43.457,-53.711,-32.715
1789911312.483551,-72.266,-23.438,-42.480,-54.688
1789911312.487410,-112.305,-15.137,-44.922,-66.406
1789911312.491269,-38.574,-19.043,-48.340,-43.945
1789911312.495128,26.367,-10.742,-47.363,-20.020
1789911312.498987,-46.875,-18.555,-52.734,-35.156
1789911312.502846,-106.445,-25.879,-53.223,-55.176
1789911312.507315,-31.250,-12.695,-44.434,-16.602
1789911312.511174,57.129,-15.625,-43.945,19.043
1789911312.515033,34.668,-22.949,-40.039,8.789
1789911312.518893,-88.867,-13.672,-52.246,-59.082
1789911312.522753,-87.402,-23.926,-64.941,-83.496
1789911312.526612,27.344,-29.297,-57.129,-26.367
1789911312.530472,20.508,-21.484,-68.359,-11.230
1789911312.534331,-60.059,-17.090,-66.406,-40.039
1789911312.538190,-76.172,-24.902,-60.547,-40.039
1789911312.542050,0.977,-31.250,-44.922,-3.418
1789911312.545909,65.918,-17.578,-50.293,11.719
1789911312.549769,-15.137,-29.297,-61.523,-21.484
1789911312.554171,-67.871,-21.973,-44.434,-30.273
1789911312.558031,-20.508,-27.832,-53.711,-35.156
1789911312.561891,36.621,-46.387,-56.641,-29.297
1789911312.565751,0.000,-30.762,-62.500,-15.137
1789911312.569611,-61.523,-22.949,-73.730,-23.438
1789911312.573470,-39.062,-53.223,-43.457,-32.227
1789911312.577330,34.180,-97.168,-33.203,-21.484
1789911312.581190,48.828,-47.363,-47.852,14.648
1789911312.585050,-56.641,-12.207,-44.434,-20.020
1789911312.588910,-75.195,0.000,-47.363,-46.387
1789911312.592770,4.395,-8.301,-71.289,-15.137
1789911312.596630,10.254,-41.992,-66.895,-5.371
1789911312.600966,-73.242,-34.668,-64.941,-22.461
1789911312.604826,-104.492,-32.227,-65.918,-42.480
1789911312.608686,-19.531,-29.785,-52.734,-21.484
1789911312.612547,72.754,3.906,-46.387,31.250
1789911312.616407,6.836,-7.324,-40.527,28.320
1789911312.620267,-53.223,-23.438,-33.691,1.953
1789911312.624128,-10.254,-4.883,-20.996,-10.742
1789911312.627988,41.504,-30.762,-15.625,-22.949
1789911312.631848,-11.719,-76.172,-47.363,-39.551
1789911312.635709,-75.684,-28.809,-47.852,-41.504
1789911312.639569,-61.523,0.000,5.371,-41.992
1789911312.643429,78.125,0.977,16.113,26.367
1789911312.647708,99.121,13.184,9.766,57.129
1789911312.651568,-27.344,43.457,58.105,3.418
1789911312.655429,-67.871,11.719,-62.500,-27.344
1789911312.659290,-4.395,-13.184,-50.293,-25.879
1789911312.663150,102.051,58.105,5.859,48.340
1789911312.667011,-74.707,-21.484,-189.453,-61.035
1789911312.670872,-65.918,9.766,-203.125,-18.066
1789911312.674732,95.703,81.055,-195.801,87.891
1789911312.678593,131.836,90.332,88.379,65.430
1789911312.682454,180.176,200.684,726.074,154.785
1789911312.686314,165.527,250.000,988.281,171.387
1789911312.690175,215.332,285.645,951.172,187.500
1789911312.694403,382.324,337.402,966.797,314.453
1789911312.698264,361.328,311.523,969.238,324.707
1789911312.702125,259.277,204.590,968.262,263.184
1789911312.705986,349.609,154.785,966.797,343.750
1789911312.709847,466.797,141.113,967.773,407.227
1789911312.713708,554.688,100.098,967.773,477.051
1789911312.717569,547.363,-8.789,936.523,549.316
1789911312.721430,547.363,-90.820,893.555,572.754
1789911312.725291,655.273,-124.512,876.953,611.816
1789911312.729152,801.758,-82.520,754.395,733.398
1789911312.733013,797.852,22.949,461.914,789.551
1789911312.736874,781.250,115.234,198.242,791.992
1789911312.741467,912.109,134.277,108.887,866.211
1789911312.745328,961.914,104.004,-57.617,853.027
1789911312.749189,930.176,331.055,-385.742,847.168
1789911312.753051,933.594,634.277,-571.777,915.527
1789911312.756912,974.121,819.336,-628.418,972.656
1789911312.760774,966.309,660.645,-676.270,969.727
1789911312.764636,967.773,398.438,-789.551,920.898
1789911312.768497,967.773,464.844,-803.711,853.516
1789911312.772359,968.262,511.230,-869.141,825.684
1789911312.776220,968.262,461.914,-836.914,814.941
1789911312.780082,967.773,641.602,-770.508,798.340
1789911312.783943,968.262,884.766,-866.211,791.992
1789911312.788457,967.773,972.168,-927.734,807.617
1789911312.792320,967.773,962.891,-892.578,830.078
1789911312.796181,967.773,967.773,-823.730,878.418
1789911312.800044,967.773,968.750,-879.883,895.508
1789911312.803905,967.773,968.262,-960.938,900.391
1789911312.807768,967.773,968.262,-954.102,944.336
1789911312.811630,967.773,968.262,-901.367,951.660
1789911312.815492,968.262,968.262,-872.559,903.809
1789911312.819354,967.773,969.727,-895.996,872.070
1789911312.823216,967.773,956.055,-902.832,885.742
1789911312.827078,967.773,987.305,-632.812,912.109
1789911312.830940,967.773,876.465,-561.523,887.695
1789911312.835400,967.773,577.148,-830.078,826.660
1789911312.839262,967.773,493.164,-745.605,777.344
1789911312.843125,967.773,366.211,-287.598,772.949
1789911312.846987,965.332,101.074,83.008,781.250
1789911312.850850,974.609,-96.680,109.375,719.238
1789911312.854712,919.922,-214.355,99.609,617.676
1789911312.858575,879.883,-437.988,368.164,567.871
1789911312.862438,842.773,-826.660,556.641,508.301
1789911312.866300,645.996,-998.535,488.770,393.066
1789911312.870163,505.859,-1000.000,507.812,317.871
1789911312.874025,510.742,-890.625,632.812,298.340
1789911312.877888,515.137,-604.980,671.875,275.391
1789911312.882319,396.484,-424.316,0.000,0.000
1789911312.886182,267.578,-236.816,0.000,0.000
1789911312.890045,254.883,-36.621,0.000,0.000
1789911312.893908,313.965,133.301,0.000,0.000
1789911312.897771,286.133,331.543,0.000,0.000
1789911312.901634,157.715,539.551,0.000,0.000
1789911312.905497,127.441,666.992,0.000,0.000
1789911312.909360,180.664,750.977,0.000,0.000
1789911312.913223,180.664,835.938,0.000,0.000
1789911312.917086,69.336,905.273,0.000,0.000
1789911312.920949,12.207,934.570,0.000,0.000
1789911312.924811,62.988,941.406,0.000,0.000
1789911312.929173,100.098,960.449,956.543,-13.184
1789911312.933036,8.301,969.238,939.941,-44.922
1789911312.936900,-62.500,967.285,901.367,-73.730
1789911312.940763,-25.391,968.262,902.344,-72.754
1789911312.944626,30.762,968.262,919.434,-73.242
1789911312.948490,-8.301,968.262,886.230,-88.867
1789911312.952353,-110.352,968.262,928.223,-132.324
1789911312.956216,-114.258,968.262,634.277,-141.113
1789911312.960080,-41.992,968.262,-63.477,-115.234
1789911312.963943,-54.199,965.820,-661.621,-114.258
1789911312.967806,-168.457,971.191,-818.359,-154.297
1789911312.971670,-209.473,949.219,-823.730,-186.523
1789911312.976333,-157.227,881.348,-931.152,-188.965
1789911312.980197,-132.324,829.102,-944.336,-183.594
1789911312.984061,-239.746,784.180,-967.285,-223.145
1789911312.987925,-305.176,742.188,-994.141,-259.277
1789911312.991789,-249.512,703.125,-1000.000,-251.465
1789911312.995653,-195.312,646.973,-999.512,-222.656
1789911312.999517,-264.160,602.051,-1000.000,-239.746
1789911313.003381,-359.863,569.336,-1000.000,-292.480
1789911313.007245,-333.496,531.738,-1000.000,-288.574
1789911313.011108,-245.117,502.441,-1000.000,-272.461
1789911313.014972,-274.902,465.332,-1000.000,-278.320
1789911313.018836,-383.789,422.852,-1000.000,-319.336
1789911313.023063,-400.391,376.953,-1000.000,-349.609
1789911313.026927,-325.195,339.844,-1000.000,-331.055
1789911313.030791,-304.199,314.941,-1000.000,-315.430
1789911313.034656,-404.785,279.785,-1000.000,-355.469
1789911313.038520,-424.805,252.441,-1000.000,-371.582
1789911313.042384,-356.445,227.539,-1000.000,-344.727
1789911313.046248,-330.078,193.359,-1000.000,-343.750
1789911313.050112,-418.945,165.527,-1000.000,-375.977
1789911313.053977,-467.773,145.020,-1000.000,-385.254
1789911313.057841,-400.391,127.441,-1000.000,-370.605
1789911313.061705,-325.684,105.957,-1000.000,-337.891
1789911313.065569,-375.977,91.309,-1000.000,-344.727
1789911313.070137,-459.473,79.102,-1000.000,-377.930
1789911313.074002,-431.152,67.871,-1000.000,-359.863
1789911313.077866,-344.727,60.059,-1000.000,-339.844
1789911313.081731,-347.656,48.828,-1000.000,-349.121
1789911313.085596,-438.477,39.062,-1000.000,-372.559
1789911313.089461,-421.387,50.781,-1000.000,-356.445
1789911313.093325,-311.523,47.852,-1000.000,-307.617
1789911313.097190,-289.062,36.133,-1000.000,-310.059
1789911313.101055,-378.906,36.621,-1000.000,-345.215
1789911313.104919,-380.859,51.270,-1000.000,-334.473
1789911313.108784,-294.434,64.453,-1000.000,-302.734
1789911313.112649,-258.789,56.152,-1000.000,-289.551
1789911313.117155,-328.613,50.293,-1000.000,-296.387
1789911313.121020,-375.977,55.176,-1000.000,-314.453
1789911313.124885,-327.637,53.223,-999.023,-300.781
1789911313.128751,-240.234,52.734,-999.512,-263.672
1789911313.132616,-269.043,51.758,-995.117,-266.602
1789911313.136481,-360.352,45.898,-979.980,-284.180
1789911313.140346,-348.633,46.875,-984.375,-279.785
1789911313.144211,-245.117,48.828,-998.535,-239.746
1789911313.148077,-228.027,53.223,-988.281,-222.168
1789911313.151942,-321.289,34.180,-976.562,-247.559
1789911313.155807,-333.008,32.715,-940.918,-245.605
1789911313.159672,-235.352,42.480,-896.973,-207.031
1789911313.164129,0.000,23.438,-920.898,-187.012
1789911313.167995,0.000,9.766,-949.219,-233.887
1789911313.171860,0.000,26.367,-933.594,-229.980
1789911313.175726,0.000,36.621,-926.758,-190.918
1789911313.179592,0.000,9.766,-916.992,-188.965
1789911313.183457,0.000,-10.254,-933.594,-201.172
1789911313.187323,0.000,0.977,-960.938,-221.191
1789911313.191189,0.000,23.438,-950.195,-197.754
1789911313.195054,0.000,27.832,-941.406,-168.945
1789911313.198920,0.000,23.438,-931.641,-177.734
1789911313.202785,0.000,21.973,-916.504,-208.984
1789911313.206651,0.000,20.996,-924.316,-210.449
1789911313.210045,-187.988,22.949,-923.828,-163.574
1789911313.213910,-293.457,32.715,-918.457,-146.973
1789911313.217776,-308.594,44.434,-887.207,-164.551
1789911313.221641,-223.633,32.227,-835.938,-177.246
1789911313.225506,-182.617,11.230,-841.309,-171.875
1789911313.229372,-234.863,-2.441,-893.555,-159.668
1789911313.233237,-292.969,9.277,-912.109,-167.480
1789911313.237102,-248.047,25.391,-892.090,-169.434
1789911313.240968,-151.855,19.531,-856.934,-146.973
1789911313.244833,-181.641,24.902,-799.316,-115.723
1789911313.248698,-273.438,29.297,-719.238,-136.719
1789911313.252563,-257.812,6.348,-658.203,-164.062
1789911313.256966,-201.660,5.371,0.000,-143.066
1789911313.260832,-104.004,14.648,0.000,-104.004
1789911313.264698,-111.816,2.930,0.000,-95.215
1789911313.268563,-205.566,-8.301,0.000,-123.535
1789911313.272429,-192.383,-9.277,0.000,-127.930
1789911313.276294,-95.215,2.441,0.000,-95.703
1789911313.280160,-80.566,7.324,0.000,-91.797
1789911313.284026,-178.711,-8.789,0.000,-125.977
1789911313.287892,-190.430,-0.977,0.000,-118.164
1789911313.291757,-109.375,14.160,0.000,-97.656
1789911313.295623,-57.617,6.836,0.000,-90.332
1789911313.299489,-126.465,5.859,0.000,-104.492
1789911313.304214,-190.918,15.137,-790.527,-102.539
1789911313.308080,-136.719,11.230,-588.379,-79.590
1789911313.311946,-51.270,2.930,-497.559,-64.941
1789911313.315812,-87.891,-3.418,-550.293,-74.707
1789911313.319679,-172.363,-11.719,-587.402,-92.773
1789911313.323545,-158.691,-19.043,-636.230,-98.145
1789911313.327411,-67.871,-16.602,-623.535,-71.289
1789911313.331278,-71.289,-14.648,-628.906,-53.711
1789911313.335144,-164.551,-16.113,-684.082,-86.426
1789911313.339010,-166.504,-6.348,-696.777,-105.469
1789911313.342876,-62.988,8.789,-670.410,-60.059
1789911313.346743,-28.809,5.859,-595.215,-45.898
1789911313.351013,-137.695,-12.695,-555.664,-86.426
1789911313.354879,-167.969,-8.789,-460.449,-89.355
1789911313.358746,-90.820,-2.441,-333.496,-79.102
1789911313.362613,-19.043,5.371,-297.852,-50.781
1789911313.366479,-82.031,8.789,-206.055,-61.035
1789911313.370346,-157.715,-0.977,-183.105,-97.168
1789911313.374213,-109.375,-5.371,-199.219,-90.332
1789911313.378079,-28.809,-10.742,-169.922,-61.035
1789911313.381946,-78.125,-9.277,-203.125,-65.918
1789911313.385812,-163.574,-9.766,-176.758,-99.609
1789911313.389679,-131.348,-18.066,-66.895,-93.750
1789911313.393545,-27.832,-5.859,-10.742,-41.992
1789911313.398107,-29.785,1.953,-68.848,-46.875
1789911313.401974,-132.324,-9.766,-179.199,-100.098
1789911313.405841,-137.695,-1.465,-224.609,-84.473
1789911313.409708,-75.684,-0.977,-201.172,-62.500
1789911313.413575,-45.898,-10.742,-183.594,-51.758
1789911313.417442,-113.281,-3.418,-210.938,-65.918
1789911313.421309,-157.715,-6.348,-214.355,-81.543
1789911313.425176,-87.891,-4.395,-132.812,-62.500
1789911313.429044,-21.484,1.953,-117.676,-59.570
1789911313.432911,-85.449,10.742,-158.691,-70.312
1789911313.436778,-151.367,33.691,-136.230,-81.543
1789911313.440645,-104.004,41.504,-125.000,-75.195
1789911313.444807,-40.527,34.180,-103.516,-65.918
1789911313.448674,-77.637,26.855,-108.398,-84.473
1789911313.452542,-160.645,32.227,-75.684,-113.281
1789911313.456409,-157.227,28.809,-61.035,-117.188
1789911313.460276,-79.102,22.461,-48.828,-95.215
1789911313.464143,-58.105,17.578,-8.301,-85.938
1789911313.468011,-129.395,20.508,-7.812,-93.750
1789911313.471878,-147.461,22.949,8.301,-98.633
1789911313.475745,-84.473,21.484,26.855,-86.914
1789911313.479612,-36.621,31.250,0.000,-59.570
1789911313.483480,-107.910,35.156,-90.820,-76.172
1789911313.487347,-162.109,37.598,-173.828,-108.887
1789911313.491497,-107.910,34.180,-210.449,-85.449
1789911313.495364,-40.527,28.809,-220.703,-50.293
1789911313.499232,-81.055,23.438,-212.402,-70.312
1789911313.503099,-148.926,20.996,-197.266,-91.309
1789911313.506967,-107.422,21.484,-177.246,-78.613
1789911313.510834,-26.855,11.230,-145.020,-67.383
1789911313.514702,-41.504,9.277,-149.902,-56.641
1789911313.518569,-129.395,18.066,-139.160,-74.219
1789911313.522437,-119.141,20.508,-121.582,-67.383
1789911313.526304,-25.879,3.906,-119.629,-39.062
1789911313.530172,0.488,7.324,-127.441,-26.367
1789911313.534039,-87.891,19.043,-153.809,-48.828
1789911313.538480,-118.164,10.742,-166.992,-68.848
1789911313.542348,-41.504,8.301,-166.016,-38.086
1789911313.546216,13.184,7.812,-169.922,-20.508
1789911313.550083,-51.758,7.812,-203.125,-37.109
1789911313.553951,-117.676,1.953,-214.355,-48.828
1789911313.557819,-76.172,-0.488,-194.824,-35.645
1789911313.561687,5.859,-0.488,-188.477,-8.789
1789911313.565555,-33.691,-2.930,-178.711,-22.461
1789911313.569422,-117.676,-13.672,-182.617,-63.965
1789911313.573290,-90.332,-13.672,-184.570,-63.477
1789911313.577158,1.953,-12.207,-191.406,-30.762
1789911313.581026,0.488,-14.648,-234.375,-10.742
1789911313.585410,-108.398,-18.066,-246.582,-28.320
1789911313.589278,-115.234,-13.672,-212.891,-53.711
1789911313.593146,-29.297,-2.441,-153.320,-36.621
1789911313.597014,-1.465,-12.207,-146.484,-20.508
1789911313.600883,-89.844,-14.648,-143.066,-39.062
1789911313.604751,-116.211,-4.883,-127.930,-51.758
1789911313.608619,-61.035,-12.695,-126.465,-51.758
1789911313.612487,0.488,-1.953,-83.984,-19.043
1789911313.616355,-61.035,-5.859,-82.520,-28.809
1789911313.620224,-142.578,-16.113,-64.941,-62.012
1789911313.624092,-98.633,-10.254,-56.152,-62.012
1789911313.627960,-20.020,-24.414,-74.707,-49.805
1789911313.632328,-40.039,-25.391,-68.359,-53.223
1789911313.636196,-124.512,-15.137,-118.164,-70.801
1789911313.640065,-118.164,-17.090,-121.094,-67.383
1789911313.643934,-23.926,-20.020,-97.656,-41.992
1789911313.647802,-2.441,-4.395,-123.047,-23.438
1789911313.651671,-104.004,-4.395,-155.273,-60.059
1789911313.655539,-119.629,-7.324,-141.602,-74.219
1789911313.659408,-22.949,7.324,-70.801,-39.551
1789911313.663276,10.742,8.301,-37.598,-25.391
1789911313.667145,-79.102,28.320,-30.762,-55.176
1789911313.671013,-100.098,48.828,-29.297,-66.406
1789911313.674882,-61.035,18.555,-53.223,-74.707
1789911313.679159,-36.621,-6.348,-63.477,-83.984
1789911313.683028,-82.031,25.879,-43.457,-87.891
1789911313.686897,-158.203,44.434,-18.066,-112.793
1789911313.690766,-169.922,33.691,-12.695,-138.672
1789911313.694635,-97.656,57.617,16.602,-137.695
1789911313.698503,-115.723,74.219,48.340,-141.113
1789911313.702372,-245.117,63.965,54.199,-183.594
1789911313.706241,-271.484,69.336,86.914,-212.891
1789911313.710110,-189.941,85.449,121.094,-202.637
1789911313.713979,-193.359,82.031,118.652,-217.773
1789911313.717848,-289.062,67.383,90.820,-246.582
1789911313.721716,-283.691,77.148,94.727,-215.820
1789911313.725967,-222.168,56.641,83.496,-210.938
1789911313.729836,-158.691,50.293,64.453,-190.430
1789911313.733706,-195.312,62.988,39.551,-172.852
1789911313.737575,-269.043,36.133,-1.953,-201.172
1789911313.741444,-210.938,29.297,-7.324,-189.453
1789911313.745313,-116.699,30.762,-30.273,-149.414
1789911313.749182,-145.020,33.203,-76.172,-126.953
1789911313.753051,-214.355,20.508,-129.883,-126.465
1789911313.756920,-186.035,-1.953,-168.945,-131.836
1789911313.760789,-84.473,-7.812,-180.664,-104.980
1789911313.764658,-75.195,-6.348,-188.965,-80.566
1789911313.768527,-151.855,-2.930,-195.801,-93.262
1789911313.773064,-135.742,-8.301,-183.594,-81.543
1789911313.776934,-38.086,-10.254,-186.523,-47.363
1789911313.780803,-0.977,-10.742,-189.941,-35.645
1789911313.784673,-77.148,-33.203,-195.801,-61.523
1789911313.788542,-98.633,-41.992,-202.148,-60.059
1789911313.792412,-29.297,-30.273,-193.359,-42.969
1789911313.796281,28.320,-36.133,-162.109,-18.066
1789911313.800151,-32.227,-42.480,-119.629,-22.949
1789911313.804020,-86.914,-34.668,-66.895,-42.480
1789911313.807890,-31.250,-26.855,5.859,-22.949
1789911313.811759,49.805,-24.414,64.453,3.418
1789911313.815629,10.254,-30.762,114.258,0.000
1789911313.819794,-76.172,-36.133,138.672,-27.832
1789911313.823663,-51.270,-41.016,129.395,-34.180
1789911313.827533,33.203,-48.340,136.230,5.859
1789911313.831403,33.691,-48.828,156.250,12.695
1789911313.835273,-41.992,-40.039,167.480,-8.789
1789911313.839142,-46.875,-32.227,198.242,1.465
1789911313.843012,22.949,-29.785,249.512,19.043
1789911313.846882,47.852,-40.527,259.277,38.574
1789911313.850751,-42.480,-43.457,228.516,11.230
1789911313.854621,-70.312,-37.598,229.980,-9.766
1789911313.858491,0.977,-40.527,248.047,20.020
1789911313.862360,68.848,-24.414,228.516,35.645
1789911313.866506,1.953,-33.203,125.488,8.301
1789911313.870375,-66.895,-45.898,74.707,-6.836
1789911313.874245,-16.602,-41.992,130.371,-1.953
1789911313.878115,67.871,-42.969,167.480,24.414
1789911313.881985,41.504,-39.551,182.617,22.461
1789911313.885855,-47.852,-40.039,205.078,-10.254
1789911313.889725,-35.645,-44.434,233.887,-9.277
1789911313.893595,48.828,-34.668,258.301,21.973
1789911313.897465,50.781,-24.902,246.582,28.320
1789911313.901335,-42.480,-28.809,222.168,5.371
1789911313.905204,-53.223,-32.227,215.820,-3.906
1789911313.909074,31.738,-20.020,238.770,24.414
1789911313.913474,74.707,-24.414,266.602,28.809
1789911313.917344,-18.066,-30.273,258.789,-15.137
1789911313.921214,-69.336,-18.555,291.016,-8.789
1789911313.925084,-20.508,-19.531,321.289,7.324
1789911313.928954,56.641,-22.461,286.621,7.812
1789911313.932825,5.371,-30.273,258.301,-15.137
1789911313.936695,-83.008,-38.086,263.184,-43.945
1789911313.940565,-35.645,-37.109,251.953,-32.715
1789911313.944435,57.617,-34.180,256.348,-0.977
1789911313.948306,32.227,-23.438,267.090,0.000
1789911313.952176,-57.617,-21.484,251.465,-19.043
1789911313.956046,-54.199,-24.414,221.680,-20.508
1789911313.960431,28.809,-24.414,222.168,-11.719
1789911313.964302,50.293,-28.320,236.328,0.488
1789911313.968172,-54.688,-38.086,227.051,-23.438
1789911313.972043,-79.590,-36.621,234.863,-38.574
1789911313.975913,1.953,-30.762,282.715,-10.254
1789911313.979784,41.992,-31.250,276.367,0.977
1789911313.983654,-27.344,-26.367,197.266,-11.719
1789911313.987525,-82.031,-25.391,159.180,-32.227
1789911313.991395,-31.250,-20.508,142.578,-16.602
1789911313.995266,48.340,-19.531,114.258,13.672
1789911313.999136,-9.277,-21.484,94.238,-9.277
1789911314.003007,-84.473,-13.672,81.543,-26.855
1789911314.007642,-41.504,-6.836,127.930,-15.625
1789911314.011513,42.480,-19.043,150.879,-2.930
1789911314.015384,14.160,-30.273,120.605,-6.348
1789911314.019255,-82.520,-29.785,131.348,-40.527
1789911314.023126,-72.754,-38.086,162.598,-46.875
1789911314.026997,15.137,-36.133,195.312,-4.883
1789911314.030868,37.598,-32.227,191.895,-5.859
1789911314.034739,-59.082,-37.598,166.504,-35.645
1789911314.038610,-97.656,-44.434,187.012,-41.504
1789911314.042481,-27.344,-44.922,231.445,-38.574
1789911314.046352,28.320,-31.738,249.023,-27.344
1789911314.050223,-37.109,-26.367,235.352,-21.973
1789911314.054499,-101.074,-27.344,222.168,-36.621
1789911314.058371,-60.059,-26.855,204.102,-36.621
1789911314.062242,20.996,-24.902,220.215,-9.277
1789911314.066113,-20.508,-31.250,231.445,-19.043
1789911314.069984,-100.586,-34.668,198.242,-51.758
1789911314.073856,-82.520,-29.785,189.941,-45.898
1789911314.077727,0.000,-21.484,183.594,-22.461
1789911314.081598,16.113,-24.902,148.438,-16.602
1789911314.085469,-87.402,-33.691,123.535,-52.246
1789911314.089341,-101.562,-30.273,102.539,-66.895
1789911314.093212,-5.371,-29.785,101.074,-37.598
1789911314.097083,28.809,-34.180,123.535,-6.348
1789911314.101624,-69.336,-42.969,150.391,-29.297
1789911314.105496,-112.305,-36.133,180.176,-53.711
1789911314.109368,-45.898,-23.438,194.336,-35.645
1789911314.113239,22.949,-9.766,204.102,-15.625
1789911314.117111,-43.457,5.371,196.777,-29.785
1789911314.120983,-116.211,20.020,180.176,-50.781
1789911314.124854,-61.035,41.016,169.922,-41.992
1789911314.128726,32.227,46.875,188.965,-1.953
1789911314.132598,1.465,44.922,195.312,0.488
1789911314.136469,-93.262,43.457,168.457,-39.551
1789911314.140341,-78.125,52.734,169.922,-32.227
1789911314.144213,8.789,56.641,190.918,-4.883
1789911314.148400,17.578,52.246,187.988,-17.090
1789911314.152272,-93.750,48.340,173.828,-48.340
1789911314.156144,-116.211,46.387,187.988,-56.641
1789911314.160016,-32.227,47.852,207.031,-40.039
1789911314.163888,19.043,47.852,213.379,-20.996
1789911314.167759,-62.012,37.598,226.074,-40.527
1789911314.171631,-116.211,38.086,234.375,-49.805
1789911314.175503,-36.133,52.246,223.633,-36.133
1789911314.179375,36.621,55.664,225.098,-9.766
1789911314.183247,-25.391,43.457,238.281,-20.508
1789911314.187119,-102.539,32.715,246.094,-40.039
1789911314.190991,-73.242,42.480,249.023,-34.180
1789911314.195454,0.000,49.805,256.836,-12.695
1789911314.199326,0.000,39.551,239.258,-7.324
1789911314.203198,0.000,24.414,216.797,-44.922
1789911314.207070,0.000,15.625,191.406,-62.500
1789911314.210943,0.000,11.230,177.734,-23.438
1789911314.214815,0.000,9.277,176.758,-5.371
1789911314.218687,0.000,11.230,152.344,-33.691
1789911314.222559,0.000,14.160,157.227,-40.039
1789911314.226432,0.000,20.508,179.199,-34.180
1789911314.230304,0.000,20.508,171.387,-17.090
1789911314.234176,0.000,16.113,178.223,-25.879
1789911314.238048,0.000,19.531,187.500,-52.246
1789911314.242165,-56.152,21.484,189.453,-45.410
1789911314.246037,15.137,15.625,191.406,-20.020
1789911314.249909,-27.344,7.324,179.199,-37.109
1789911314.253782,-109.863,12.207,153.809,-59.082
1789911314.257654,-76.660,9.277,135.742,-41.504
1789911314.261527,19.531,2.441,127.930,-20.020
1789911314.265399,8.301,8.789,132.324,-23.438
1789911314.269271,-106.934,2.930,131.348,-56.641
1789911314.273144,-112.305,-0.488,125.488,-68.848
1789911314.277016,-17.090,-0.488,139.160,-29.297
1789911314.280889,23.926,-2.930,165.527,-6.348
1789911314.284761,-54.688,1.465,157.715,-47.363
1789911314.289128,0.000,-0.977,136.719,-51.758
1789911314.293000,0.000,-14.648,145.996,-28.809
1789911314.296873,0.000,-14.160,104.492,-17.578
1789911314.300746,0.000,-18.066,38.574,-37.598
1789911314.304619,0.000,-26.367,31.250,-59.570
1789911314.308491,0.000,-12.207,7.324,-42.480
1789911314.312364,0.000,-15.137,-36.133,-14.160
1789911314.316237,0.000,-27.344,-76.660,-40.527
1789911314.320109,0.000,-28.809,-94.727,-73.242
1789911314.323982,0.000,-32.715,-85.938,-58.105
1789911314.327855,0.000,-31.250,-74.707,-31.738
1789911314.331728,0.000,-30.762,-77.148,-26.367
1789911314.336064,-72.754,-39.062,-98.145,-55.664
1789911314.339937,-105.957,-35.156,-103.516,-68.359
1789911314.343810,-49.805,-36.133,-97.656,-61.523
1789911314.347683,-9.766,-34.668,-119.141,-47.852
1789911314.351556,-83.008,-34.180,-148.438,-66.406
1789911314.355429,-136.230,-39.062,-150.391,-85.938
1789911314.359302,-71.289,-35.645,-187.988,-65.918
1789911314.363175,10.254,-32.715,-244.629,-33.203
1789911314.367048,-71.289,-40.527,-277.832,-54.199
1789911314.370921,-139.648,-45.410,-272.949,-79.102
1789911314.374794,-91.309,-37.598,-265.137,-63.965
1789911314.378667,-23.926,-39.062,-279.785,-54.688
1789911314.382953,-53.711,-48.828,-280.762,-73.242
1789911314.386827,-148.438,-53.711,-256.348,-94.238
1789911314.390700,-146.484,-54.688,-224.609,-100.586
1789911314.394573,-49.316,-57.617,-209.473,-75.195
1789911314.398446,-25.879,-61.523,-206.543,-56.152
1789911314.402319,-125.488,-59.082,-200.195,-91.797
1789911314.406193,-156.738,-59.082,-178.223,-109.375
1789911314.410066,-84.473,-70.801,-151.367,-78.613
1789911314.413939,-15.625,-63.477,-117.676,-62.500
1789911314.417812,-87.891,-47.363,-103.027,-81.055
1789911314.421685,-145.996,-46.875,-85.449,-91.797
1789911314.425559,-78.613,-44.922,-62.988,-74.219
1789911314.429813,-4.395,-39.062,-55.176,-50.293
1789911314.433686,-43.945,-37.598,-70.801,-54.688
1789911314.437559,-121.582,-43.457,-89.355,-74.707
1789911314.441433,-114.746,-49.316,-61.035,-82.031
1789911314.445306,-24.902,-38.086,-14.648,-47.852
1789911314.449180,-38.574,-36.133,2.930,-48.340
1789911314.453053,-141.113,-44.922,-3.906,-88.867
1789911314.456927,-136.719,-46.387,-11.230,-90.820
1789911314.460800,-43.457,-42.480,-7.812,-64.941
1789911314.464674,-17.090,-43.457,-22.461,-58.594
1789911314.468547,-102.539,-33.691,-56.641,-72.754
1789911314.472420,-118.164,-25.879,-67.871,-78.125
1789911314.476616,-34.668,-28.809,-79.102,-60.547
1789911314.480490,15.625,-25.879,-83.496,-38.574
1789911314.484364,-61.523,-26.367,-91.309,-44.434
1789911314.488237,-121.094,-22.949,-93.750,-56.641
1789911314.492111,-62.500,-19.531,-87.402,-54.688
1789911314.495985,23.438,-14.160,-90.332,-23.926
1789911314.499858,-21.973,-19.043,-89.355,-36.621
1789911314.503732,-111.328,-26.855,-81.055,-56.152
1789911314.507606,-87.402,-18.066,-63.477,-44.434
1789911314.511479,-0.977,-11.230,-41.016,-35.645
1789911314.515353,-7.324,-16.113,-41.504,-39.551
1789911314.519226,-95.215,-21.484,-27.832,-63.477
1789911314.523415,-106.445,-22.461,20.020,-74.219
1789911314.527289,-23.438,-20.508,48.340,-44.922
1789911314.531163,26.855,-19.043,43.457,-19.043
1789911314.535037,-60.547,-21.484,43.945,-57.617
1789911314.538911,-103.516,-20.996,73.730,-75.684
1789911314.542784,-38.086,-22.949,84.473,-37.598
1789911314.546658,28.320,-21.484,86.914,-9.766
1789911314.550532,-33.203,-14.648,108.887,-29.785
1789911314.554406,-107.910,-21.973,112.305,-73.242
1789911314.558280,-58.105,-33.691,109.375,-50.781
1789911314.562154,24.414,-29.297,122.559,-10.742
1789911314.566027,-12.207,-34.180,113.770,-29.785
1789911314.570160,-94.238,-40.039,99.609,-58.105
1789911314.574034,-80.078,-33.691,100.098,-40.527
1789911314.577908,6.836,-31.250,113.770,-20.508
1789911314.581782,23.926,-28.320,124.512,-18.066
1789911314.585656,-67.383,-35.156,119.629,-31.250
1789911314.589530,-88.867,-38.086,109.375,-39.551
1789911314.593404,-4.883,-36.621,119.629,-19.531
1789911314.597278,43.945,-39.062,151.855,-12.207
1789911314.601152,-40.527,-27.832,129.395,-32.715
1789911314.605026,-92.285,-27.344,121.582,-48.828
1789911314.608900,-33.203,-37.109,134.766,-31.250
1789911314.612774,30.273,-35.645,101.562,-8.301
1789911314.616859,-21.973,-21.973,77.148,-26.367
1789911314.620733,-86.914,-24.414,66.406,-41.992
1789911314.624607,-53.223,-32.227,67.383,-36.621
1789911314.628481,34.668,-30.273,71.777,-15.137
1789911314.632355,17.090,-31.738,68.848,-21.484
1789911314.636229,-80.078,-33.691,69.824,-46.387
1789911314.640103,-76.172,-34.180,104.980,-49.316
1789911314.643977,10.254,-32.715,147.461,-39.062
1789911314.647852,35.156,-35.645,154.297,-28.809
1789911314.651726,-54.688,-35.156,166.504,-43.457
1789911314.655600,-86.426,-35.645,183.105,-60.547
1789911314.659474,-17.090,-34.180,197.754,-51.758
1789911314.663824,31.250,-36.133,182.617,-22.949
1789911314.667699,-46.387,-42.480,166.504,-28.320
1789911314.671573,-112.793,-41.992,155.762,-57.129
1789911314.675447,-51.270,-38.574,151.367,-48.340
1789911314.679322,26.367,-38.086,153.809,-23.438
1789911314.683196,-34.180,-43.945,125.977,-43.457
1789911314.687071,-97.168,-43.945,125.000,-48.828
1789911314.690945,-60.547,-41.992,133.301,-34.668
1789911314.694819,10.254,-45.898,120.605,-28.320
1789911314.698694,2.930,-46.387,134.766,-25.879
1789911314.702568,-84.961,-42.969,155.273,-49.805
1789911314.706442,-89.355,-43.457,125.000,-54.199
1789911314.711029,2.441,-41.992,90.332,-30.273
1789911314.714904,21.973,-38.086,75.684,-22.949
1789911314.718779,-76.660,-48.828,67.871,-52.246
1789911314.722653,-102.539,-50.293,54.688,-49.805
1789911314.726528,-32.715,-42.969,24.902,-31.738
1789911314.730403,18.066,-41.016,-9.766,-29.785
1789911314.734278,-61.523,-41.504,-31.738,-40.039
1789911314.738153,-132.324,-49.316,-45.898,-59.082
1789911314.742027,-75.684,-51.270,-87.891,-40.527
1789911314.745902,7.812,-46.875,-118.652,-22.461
1789911314.749777,-24.902,-35.156,-125.977,-45.898
1789911314.753652,-103.027,-38.086,-124.512,-60.547
1789911314.757913,-88.867,-42.969,-114.746,-50.293
1789911314.761788,-7.812,-35.645,-78.613,-23.926
1789911314.765663,-5.859,-40.039,-32.715,-22.461
1789911314.769538,-101.562,-45.898,-28.320,-57.617
1789911314.773413,-112.305,-41.504,-35.156,-67.871
1789911314.777288,-32.715,-41.504,-57.617,-36.621
1789911314.781163,-0.488,-40.527,-69.824,-21.973
1789911314.785038,-79.102,-28.320,-69.336,-30.273
1789911314.788913,-120.605,-33.203,-57.617,-40.527
1789911314.792788,-49.805,-34.180,-31.250,-30.762
1789911314.796663,19.531,-25.391,-32.715,-23.438
1789911314.800538,-45.410,-26.855,-52.734,-46.875
1789911314.804763,-119.629,-29.785,-42.480,-52.246
1789911314.808638,-79.590,-23.926,-14.648,-43.457
1789911314.812513,6.348,-20.508,-27.832,-28.809
1789911314.816388,-24.902,-24.902,-53.223,-23.926
1789911314.820264,-107.910,-28.809,-50.781,-43.457
1789911314.824139,-91.309,-32.227,-52.734,-50.781
1789911314.828014,-5.859,-34.180,-42.480,-35.645
1789911314.831889,25.391,-27.344,-50.293,-13.672
1789911314.835764,-73.730,-28.320,-47.852,-27.344
1789911314.839639,-127.930,-33.203,-14.160,-70.312
1789911314.843515,-51.758,-36.133,-30.273,-61.523
1789911314.847390,19.043,-35.156,-30.762,-44.922
1789911314.851591,0.000,-34.180,-18.066,-74.707
1789911314.855466,0.000,-39.062,-18.555,-74.707
1789911314.859342,0.000,-29.297,-22.949,-48.340
1789911314.863217,0.000,-15.625,-34.180,-36.621
1789911314.867092,0.000,-20.508,-47.363,-57.129
1789911314.870968,0.000,-27.832,-45.898,-78.125
1789911314.874843,0.000,-28.809,-39.062,-65.430
1789911314.878718,0.000,-26.367,-36.621,-18.555
1789911314.882594,0.000,-29.297,-42.480,-21.973
1789911314.886469,0.000,-27.344,-41.504,-55.176
1789911314.890344,0.000,-20.996,-32.715,-46.387
1789911314.894220,0.000,-25.879,-21.973,-31.250
1789911314.898389,22.461,-18.066,-32.227,-28.809
1789911314.902264,-73.730,-18.555,-44.434,-62.012
1789911314.906140,-107.422,-21.484,-36.621,-63.477
1789911314.910015,-25.391,-18.555,-20.508,-35.156
1789911314.913891,22.461,-18.555,-18.555,-16.602
1789911314.917766,-51.270,-16.113,-30.762,-23.926
1789911314.921642,-93.750,-17.578,-30.762,-46.387
1789911314.925517,-38.574,-25.879,-22.461,-43.945
1789911314.929393,27.832,-22.461,-18.555,-20.508
1789911314.933268,-19.531,-18.066,-27.832,-25.391
1789911314.937144,-101.074,-27.832,-38.086,-44.434
1789911314.941020,-65.430,-28.320,-32.715,-31.250
1789911314.945139,24.414,-28.809,-31.250,-16.113
1789911314.949014,6.836,-38.086,-41.016,-17.578
1789911314.952890,-91.309,-37.109,-44.434,-35.156
1789911314.956766,-78.613,-38.574,-42.969,-37.109
1789911314.960642,12.207,-35.156,-33.691,-6.348
1789911314.964517,32.227,-33.691,-12.695,8.301
1789911314.968393,-63.477,-44.434,2.441,-11.719
1789911314.972269,-103.027,-43.457,14.648,-35.645
1789911314.976144,-27.344,-45.410,11.230,-24.902
1789911314.980020,44.434,-48.828,2.441,-3.418
1789911314.983896,-37.598,-45.410,-12.207,-35.156
1789911314.987771,-112.305,-50.293,-26.367,-61.035
1789911314.991856,-57.617,-47.852,-21.973,-44.922
1789911314.995732,26.367,-37.598,-10.254,-17.578
1789911314.999607,-7.812,-36.133,-8.789,-19.531
1789911315.003483,-92.773,-36.133,-17.090,-43.945
1789911315.007359,-73.242,-42.969,-21.484,-39.062
1789911315.011235,17.578,-45.410,-25.391,-11.230
1789911315.015110,20.020,-42.480,-32.227,-16.602
1789911315.018986,-83.984,-39.551,-28.320,-51.758
1789911315.022862,-88.379,-34.668,-27.832,-47.363
1789911315.026738,-11.230,-38.574,-27.832,-28.809
1789911315.030613,24.414,-36.133,-28.320,-16.113
1789911315.034489,-61.035,-40.039,-23.438,-35.645
1789911315.038801,-114.746,-52.246,-15.137,-74.707
1789911315.042677,-47.363,-46.387,-5.371,-59.082
1789911315.046553,30.273,-38.086,8.301,-20.020
1789911315.050429,-37.109,-42.480,-2.930,-40.527
1789911315.054305,-125.000,-48.828,-11.719,-71.777
1789911315.058181,-90.332,-57.617,-6.836,-62.988
1789911315.062057,8.789,-42.969,-2.441,-28.809
1789911315.065933,-11.719,-33.203,-0.977,-32.715
1789911315.069809,-117.676,-40.527,-20.020,-64.453
1789911315.073685,-98.633,-37.109,-25.879,-59.570
1789911315.077561,-5.371,-38.086,-7.324,-38.086
1789911315.081437,11.719,-40.039,-9.766,-37.109
1789911315.085722,-69.824,-44.922,-16.113,-56.641
1789911315.089598,-95.703,-48.340,-1.465,-62.012
1789911315.093474,-12.695,-38.086,20.996,-39.551
1789911315.097351,38.574,-35.645,18.066,-21.484
1789911315.101227,-52.734,-48.828,1.465,-49.316
1789911315.105103,-105.957,-46.387,7.812,-69.824
1789911315.108979,-44.922,-37.598,27.344,-52.734
1789911315.112855,23.438,-41.016,28.320,-36.133
1789911315.116732,-34.668,-43.457,1.465,-39.551
1789911315.120608,-120.117,-51.270,7.324,-53.711
1789911315.124484,-89.844,-45.898,31.250,-56.152
1789911315.128361,9.277,-34.180,36.133,-24.902
1789911315.132611,-8.301,-44.922,33.691,-35.156
1789911315.136488,-110.352,-54.199,23.438,-69.336
1789911315.140364,-109.375,-48.340,14.648,-68.359
1789911315.144241,-20.508,-45.898,10.742,-47.363
1789911315.148117,3.906,-41.992,7.812,-38.574
1789911315.151994,-75.195,-37.598,6.348,-64.453
1789911315.155870,-95.703,-34.180,9.766,-81.543
1789911315.159746,-28.320,-36.621,30.273,-70.312
1789911315.163623,18.555,-43.945,19.531,-34.668
1789911315.167499,-54.688,-38.086,-1.465,-47.363
1789911315.171376,-114.746,-39.551,8.789,-81.543
1789911315.175252,-80.566,-44.434,0.488,-66.406
1789911315.179480,-8.789,-30.762,-9.766,-41.992
1789911315.183356,-41.504,-28.320,-14.648,-51.270
1789911315.187233,-120.605,-35.645,-21.484,-68.848
1789911315.191110,-105.469,-33.203,-14.648,-61.523
1789911315.194986,-14.648,-27.344,2.930,-33.203
1789911315.198863,-4.395,-24.414,2.930,-32.227
1789911315.202739,-100.586,-33.203,-7.324,-57.129
1789911315.206616,-91.309,-29.785,-7.812,-47.852
1789911315.210493,-3.418,-22.461,11.230,-24.414
1789911315.214369,25.879,-23.926,14.160,-20.020
1789911315.218246,-59.570,-26.367,-10.254,-33.203
1789911315.222122,-106.934,-32.715,4.395,-49.805
1789911315.226384,0.000,-37.598,8.789,-42.969
1789911315.230261,0.000,-25.391,-18.555,-9.277
1789911315.234138,0.000,-26.855,-26.855,-28.809
1789911315.238014,0.000,-24.414,-17.578,-58.105
1789911315.241891,0.000,-26.855,2.441,-18.066
1789911315.245768,0.000,-34.668,7.812,25.391
1789911315.249645,0.000,-20.996,-21.973,-26.855
1789911315.253522,0.000,-20.508,-42.480,-80.566
1789911315.257398,0.000,-15.625,-29.297,-54.688
1789911315.261275,0.000,-18.066,-27.832,-34.668
1789911315.265152,0.000,-26.367,-39.551,-32.227
1789911315.269029,0.000,-20.020,-41.504,-51.270
1789911315.272539,-44.434,-13.184,0.000,-57.617
1789911315.276416,24.414,-17.090,0.000,-36.621
1789911315.280293,-38.086,-25.879,0.000,-16.602
1789911315.284169,-98.145,-29.297,0.000,-31.250
1789911315.288046,-41.016,-32.227,0.000,-44.434
1789911315.291923,52.734,-29.785,0.000,-28.320
1789911315.295799,-10.254,-24.414,0.000,-17.578
1789911315.299676,-132.812,-28.320,0.000,-32.715
1789911315.303552,-95.215,-21.973,0.000,-54.199
1789911315.307429,0.000,-22.461,0.000,-40.039
1789911315.311306,9.277,-25.391,0.000,-20.020
1789911315.315182,-81.055,-21.973,0.000,-28.809
1789911315.319306,-97.656,-21.973,-28.320,-54.199
1789911315.323183,-89.844,-25.879,-24.902,-58.594
1789911315.327060,-3.418,-28.320,-29.785,-36.133
1789911315.330936,16.602,-25.391,-30.273,-36.133
1789911315.334813,-66.895,-22.461,-30.762,-58.594
1789911315.338690,-93.750,-20.020,-33.203,-59.570
1789911315.342566,-19.043,-23.438,-22.949,-34.180
1789911315.346443,34.180,-22.949,0.488,-8.301
1789911315.350320,-44.434,-12.207,-1.465,-40.527
1789911315.354197,-100.586,-22.461,-13.672,-64.941
1789911315.358073,-42.480,-33.691,-10.254,-50.781
1789911315.361950,21.484,-25.879,-0.488,-33.203
1789911315.366033,-25.879,-20.996,-3.418,-31.738
1789911315.369910,-95.215,-17.578,-6.348,-58.105
1789911315.373786,-63.965,-15.625,5.371,-58.594
1789911315.377663,27.832,-10.742,17.578,-18.066
1789911315.381540,22.949,0.488,12.207,-11.719
1789911315.385417,-69.336,-6.836,-12.695,-35.156
1789911315.389294,-79.590,-15.625,-7.324,-34.180
1789911315.393171,-3.418,-22.461,13.184,-18.555
1789911315.397048,22.461,-20.996,-9.766,-8.301
1789911315.400924,-66.406,-16.602,-19.043,-29.785
1789911315.404801,-96.680,-23.438,-9.277,-45.410
1789911315.408678,-22.461,-25.879,-12.695,-38.086
1789911315.412998,39.062,-24.414,-16.113,-20.020
1789911315.416875,-40.039,-22.461,-19.043,-31.738
1789911315.420752,-99.609,-27.344,-17.090,-49.316
1789911315.424629,-36.621,-31.250,-13.672,-45.410
1789911315.428507,49.316,-27.344,-11.230,-6.836
1789911315.432384,7.812,-29.297,-25.879,-10.742
1789911315.436261,-63.477,-29.297,-26.855,-29.785
1789911315.440138,-49.805,-28.320,-8.789,-38.574
1789911315.444015,0.488,-33.691,-2.441,-42.969
1789911315.447892,1.465,-37.109,-1.953,-21.484
1789911315.451769,-88.379,-52.734,4.395,-43.457
1789911315.455646,-92.285,-62.988,11.230,-55.664
1789911315.459933,0.000,-54.199,0.000,-26.855
1789911315.463810,0.000,-48.340,0.000,-9.766
1789911315.467687,0.000,-49.805,0.000,-42.969
1789911315.471565,0.000,-53.711,0.000,-51.270
1789911315.475442,0.000,-49.316,0.000,-33.203
1789911315.479319,0.000,-48.340,0.000,-16.602
1789911315.483196,0.000,-54.199,0.000,-31.738
1789911315.487074,0.000,-60.059,0.000,-61.035
1789911315.490951,0.000,-61.523,0.000,-39.062
1789911315.494828,0.000,-46.387,0.000,-9.277
1789911315.498706,0.000,-42.969,0.000,-29.297
1789911315.502583,0.000,-46.875,0.000,-50.293
1789911315.506848,-68.848,-31.738,-10.742,-40.527
1789911315.510725,15.625,-40.039,-5.371,-28.809
1789911315.514603,19.043,-41.992,-15.137,-31.738
1789911315.518480,-73.242,-33.203,-19.043,-61.035
1789911315.522358,-101.074,-40.527,-10.254,-66.895
1789911315.526235,-24.902,-41.504,1.465,-36.133
1789911315.530113,26.367,-39.551,13.184,-18.555
1789911315.533990,-50.293,-39.551,5.859,-39.551
1789911315.537868,-95.215,-37.598,10.254,-40.527
1789911315.541745,-41.016,-41.504,29.785,-31.738
1789911315.545623,26.855,-42.969,23.438,-15.625
1789911315.549500,-30.273,-42.969,0.488,-14.160
1789911315.553706,-98.145,-35.645,4.883,-38.574
1789911315.557583,-62.988,-30.273,19.043,-30.762
1789911315.561461,4.883,-37.109,6.348,-3.906
1789911315.565339,-7.324,-41.016,1.465,2.441
1789911315.569216,-89.844,-40.527,-0.977,-24.902
1789911315.573094,-88.379,-45.898,-8.789,-24.902
1789911315.576972,5.371,-42.969,-0.977,2.930
1789911315.580849,25.879,-41.992,-2.441,9.277
1789911315.584727,-71.289,-50.293,-18.066,-17.090
1789911315.588605,-92.285,-50.781,-15.137,-32.227
1789911315.592482,-18.066,-48.340,-8.301,-12.695
1789911315.596360,42.480,-40.039,0.977,-3.906
1789911315.600535,-35.645,-31.250,-4.395,-22.461
1789911315.604413,-111.816,-36.133,-18.555,-43.945
1789911315.608290,-50.293,-41.016,-10.254,-25.879
1789911315.612168,28.809,-38.086,5.859,-9.277
1789911315.616046,-13.672,-43.457,0.488,-19.531
1789911315.619924,-99.121,-50.781,-12.695,-39.551
1789911315.623802,-93.262,-56.641,-9.766,-58.594
1789911315.627679,3.906,-62.012,-6.348,-41.992
1789911315.631557,-1.953,-53.223,-1.465,-36.621
1789911315.635435,-98.145,-58.105,-0.977,-59.082
1789911315.639313,-107.422,-70.312,-7.324,-62.500
1789911315.643191,-20.996,-80.078,3.906,-45.898
1789911315.647341,33.691,-72.266,8.789,-18.555
1789911315.651219,-82.031,-62.988,-2.930,-76.172
1789911315.655097,-132.812,-62.988,-0.977,-108.398
1789911315.658975,-47.363,-53.223,5.859,-70.801
1789911315.662853,3.906,-49.316,3.906,-63.477
1789911315.666731,-55.176,-58.594,16.602,-76.172
1789911315.670609,-112.305,-57.617,19.531,-90.332
1789911315.674487,-73.730,-54.688,16.602,-74.707
1789911315.678365,5.371,-53.223,32.715,-45.410
1789911315.682243,-31.250,-57.617,17.578,-58.594
1789911315.686121,-125.000,-68.359,14.648,-81.055
1789911315.689999,-106.934,-64.941,19.043,-69.336
1789911315.694124,-10.742,-56.641,21.484,-60.547
1789911315.698002,-3.418,-52.734,13.184,-52.246
1789911315.701880,-104.980,-56.152,1.953,-63.965
1789911315.705758,-123.535,-57.617,14.648,-68.359
1789911315.709636,-26.367,-51.758,29.297,-35.156
1789911315.713514,19.043,-47.852,28.320,-15.137
1789911315.717392,-64.941,-50.293,20.020,-42.480
1789911315.721271,-94.727,-45.410,32.715,-51.270
1789911315.725148,-36.621,-41.504,42.969,-34.180
1789911315.729027,17.578,-41.504,30.273,-11.719
1789911315.732905,-41.016,-42.969,13.672,-34.180
1789911315.736783,-108.398,-48.340,12.207,-63.477
1789911315.740857,-66.895,-49.805,27.344,-42.480
1789911315.744735,18.555,-50.293,34.180,-12.695
1789911315.748614,-1.465,-45.410,17.578,-24.902
1789911315.752492,-97.656,-42.969,19.531,-57.129
1789911315.756370,-82.031,-50.293,16.602,-50.781
1789911315.760248,13.184,-49.805,4.883,-19.043
1789911315.764126,21.484,-45.898,2.441,-17.090
1789911315.768004,-67.871,-47.363,5.859,-51.758
1789911315.771883,-90.332,-50.781,-7.812,-66.895
1789911315.775761,-13.184,-51.270,-7.324,-38.086
1789911315.779639,34.180,-49.805,-1.465,-16.602
1789911315.783517,-52.246,-50.293,-11.719,-34.180
1789911315.787816,-102.051,-51.758,-13.672,-55.176
1789911315.791694,-39.551,-47.363,-3.906,-25.391
1789911315.795573,34.180,-39.551,8.301,8.789
1789911315.799451,-10.254,-31.738,-2.441,-27.832
1789911315.803329,-95.215,-30.273,-14.648,-61.035
1789911315.807208,-66.406,-40.039,-15.625,-50.293
1789911315.811086,26.367,-42.969,-15.625,-25.391
1789911315.814964,1.465,-41.992,-19.043,-37.109
1789911315.818843,-104.492,-51.758,-27.344,-62.500
1789911315.822721,-87.402,-49.316,-20.020,-50.781
1789911315.826599,2.441,-32.715,-11.230,-20.508
1789911315.830478,25.391,-26.855,-24.414,-8.301
1789911315.834737,-74.707,-32.227,-20.996,-32.715
1789911315.838615,-106.934,-33.203,-22.461,-57.617
1789911315.842494,-26.367,-32.227,-27.832,-54.688
1789911315.846372,28.809,-38.086,-16.602,-36.133
1789911315.850251,-51.270,-43.945,-29.297,-41.992
1789911315.854130,-121.094,-42.480,-34.668,-57.617
1789911315.858008,-58.105,-35.645,-19.531,-52.246
1789911315.861887,28.809,-34.180,-20.020,-30.762
1789911315.865765,-20.508,-39.551,-38.574,-42.480
1789911315.869644,-104.492,-35.156,-39.062,-64.941
1789911315.873522,-77.148,-31.250,-30.273,-55.176
1789911315.877401,7.324,-36.133,-30.762,-33.203
1789911315.881622,5.371,-31.738,-26.855,-17.090
1789911315.885501,-86.426,-31.738,-24.902,-42.969
1789911315.889380,-96.191,-40.039,-26.367,-58.594
1789911315.893258,-6.348,-41.992,-25.879,-31.738
1789911315.897137,34.668,-33.203,-24.902,-24.902
1789911315.901016,-60.059,-33.203,-19.043,-41.016
1789911315.904894,-93.750,-38.574,-19.043,-46.875
1789911315.908773,-20.508,-39.062,-15.625,-33.203
1789911315.912652,39.551,-38.086,-7.324,-0.488
1789911315.916530,-44.434,-33.691,-9.766,-32.715
1789911315.920409,-121.094,-36.133,-12.695,-65.430
1789911315.924288,-73.242,-42.480,0.488,-41.992
1789911315.928479,12.207,-33.691,8.301,-16.113
1789911315.932358,-17.090,-32.715,-10.254,-24.414
1789911315.936237,-74.707,-41.992,-10.742,-20.996
1789911315.940116,-56.152,-31.250,2.930,-12.207
1789911315.943995,-10.254,-21.973,0.488,-36.621
1789911315.947874,9.766,-28.320,-3.418,-31.250
1789911315.951753,-89.355,-22.949,8.301,-52.246
1789911315.955632,-119.629,-30.273,14.160,-69.824
1789911315.959511,-30.273,-37.598,20.508,-41.504
1789911315.963389,-3.906,-30.762,21.484,-33.203
1789911315.967268,-93.262,-33.203,19.043,-63.965
1789911315.971147,-130.859,-31.250,29.297,-80.566
1789911315.975324,-66.406,-28.809,24.902,-56.641
1789911315.979203,9.277,-29.297,19.043,-24.902
1789911315.983082,-41.504,-32.715,17.578,-33.691
1789911315.986961,-117.676,-42.969,17.090,-59.570
1789911315.990840,-64.453,-40.527,25.879,-48.340
1789911315.994719,11.719,-39.551,36.133,-24.414
1789911315.998598,-14.648,-42.969,40.527,-15.137
1789911316.002477,-93.750,-37.598,29.785,-31.250
1789911316.006356,-89.844,-36.621,31.250,-50.781
1789911316.010235,2.930,-40.039,40.039,-29.785
1789911316.014114,11.230,-38.086,22.949,-13.672
1789911316.017993,-89.355,-37.109,33.691,-48.340
1789911316.022123,-109.863,-35.645,45.898,-61.035
1789911316.026002,-22.461,-38.086,32.227,-33.691
1789911316.029882,40.039,-39.062,31.250,-12.695
1789911316.033761,-54.199,-35.645,29.297,-45.410
1789911316.037640,-107.910,-35.645,30.762,-61.523
1789911316.041519,-39.062,-38.086,36.133,-42.969
1789911316.045398,39.551,-40.039,32.715,-22.949
1789911316.049277,-6.348,-34.668,22.949,-16.602
1789911316.053156,-86.426,-27.832,28.320,-39.551
1789911316.057036,-57.129,-28.809,33.203,-50.781
1789911316.060915,26.367,-29.785,35.645,-26.855
1789911316.064794,16.113,-25.391,31.250,-21.484
1789911316.068909,-82.031,-28.320,24.902,-55.176
1789911316.072788,-76.660,-29.297,22.949,-41.504
1789911316.076667,17.578,-22.461,19.531,-13.184
1789911316.080547,43.457,-20.996,11.230,-8.789
1789911316.084426,-44.434,-20.508,-5.859,-34.668
1789911316.088305,-83.008,-20.508,0.488,-46.875
1789911316.092184,-6.348,-21.973,9.277,-7.812
1789911316.096064,54.199,-16.602,13.672,7.812
1789911316.099943,-25.391,-18.066,16.113,-28.809
1789911316.103822,-92.773,-27.344,5.859,-41.504
1789911316.107701,-35.645,-27.832,-3.906,-22.461
1789911316.111581,62.012,-29.297,14.648,11.230
1789911316.115664,-1.953,-23.926,13.184,-16.113
1789911316.119543,-118.164,-19.043,-18.555,-72.754
1789911316.123422,-67.383,-17.578,-9.277,-50.293
1789911316.127302,44.922,-11.719,12.207,-13.672
1789911316.131181,30.273,-12.695,-5.371,-18.066
1789911316.135060,-59.570,-22.949,-19.531,-30.273
1789911316.138940,-57.617,-22.949,-5.859,-34.668
1789911316.142819,14.160,-18.066,3.418,-19.531
1789911316.146698,59.082,-15.137,3.906,3.906
1789911316.150578,-17.578,-18.555,-3.906,-20.020
1789911316.154457,-66.895,-17.578,12.695,-47.852
1789911316.158336,-4.395,-11.719,23.926,-25.879
1789911316.162611,68.359,-15.625,15.137,5.859
1789911316.166491,-6.348,-24.414,38.574,-20.996
1789911316.170370,-96.680,-26.855,38.086,-47.852
1789911316.174250,-40.527,-28.809,20.508,-30.762
1789911316.178129,33.691,-34.668,21.484,-6.348
1789911316.182009,-14.648,-34.668,1.953,-10.254
1789911316.185888,-88.867,-37.109,-5.859,-32.227
1789911316.189768,-70.801,-34.668,13.184,-39.551
1789911316.193647,27.344,-26.367,29.785,-10.742
1789911316.197527,33.691,-20.020,29.297,4.395
1789911316.201406,-76.660,-24.414,19.531,-32.715
1789911316.205286,-86.426,-22.949,9.277,-42.480
1789911316.209542,12.695,-12.695,13.184,-28.809
1789911316.213421,57.617,-17.090,6.348,-14.160
1789911316.217301,-33.203,-26.855,-10.254,-30.762
1789911316.221181,-77.148,-28.809,-11.230,-51.270
1789911316.225060,-15.137,-27.832,-7.324,-31.738
1789911316.228940,44.922,-29.785,-10.742,-7.812
1789911316.232820,-12.695,-32.227,-17.090,-27.344
1789911316.236699,-84.961,-25.391,-0.488,-43.945
1789911316.240579,-57.617,-29.297,3.906,-24.902
1789911316.244459,22.461,-35.156,7.324,0.977
1789911316.248338,10.254,-26.855,22.461,-11.230
1789911316.252218,-80.566,-32.227,14.160,-47.852
1789911316.256434,-85.938,-41.992,13.184,-52.734
1789911316.260314,-2.930,-36.621,16.602,-31.738
1789911316.264194,25.391,-26.855,-10.742,-10.254
1789911316.268074,-71.777,-28.809,-19.531,-31.250
1789911316.271953,-100.586,-32.227,-14.648,-46.875
1789911316.275833,-16.602,-26.367,-14.160,-31.250
1789911316.279713,27.344,-28.320,-13.672,-24.414
1789911316.283593,-56.641,-31.250,-16.602,-40.039
1789911316.287473,-106.934,-32.715,-13.672,-54.688
1789911316.291353,-56.641,-38.086,-4.395,-46.387
1789911316.295233,12.695,-35.645,-6.348,-24.902
1789911316.299112,-28.809,-29.785,-26.367,-41.016
1789911316.303546,-100.586,-33.203,-26.855,-60.059
1789911316.307426,-68.848,-33.691,-22.949,-55.664
1789911316.311306,30.762,-29.785,-22.949,-30.273
1789911316.315187,24.414,-29.785,-21.973,-20.996
1789911316.319067,-85.938,-39.551,-27.832,-51.270
1789911316.322947,-89.844,-42.480,-29.297,-52.734
1789911316.326827,-12.207,-38.574,-26.855,-27.832
1789911316.330707,28.320,-31.250,-21.973,1.465
1789911316.334587,-62.500,-23.926,-16.602,-18.555
1789911316.338467,-113.281,-24.902,-14.160,-60.059
1789911316.342347,-36.621,-26.855,-16.602,-40.039
1789911316.346227,25.879,-30.273,-14.648,-15.625
1789911316.350434,-48.828,-32.715,-17.578,-40.039
1789911316.354314,-104.980,-34.668,-14.160,-61.523
1789911316.358195,-53.223,-38.086,0.000,-51.270
1789911316.362075,19.531,-37.598,0.977,-20.996
1789911316.365955,-22.949,-36.133,-7.324,-25.391
1789911316.369835,-113.770,-40.039,-8.789,-57.617
1789911316.373716,-80.566,-25.879,-1.465,-60.547
1789911316.377596,5.859,-19.043,-1.465,-41.504
1789911316.381476,6.836,-25.391,-14.648,-38.086
1789911316.385356,-90.820,-33.691,-17.090,-60.547
1789911316.389237,-96.191,-28.809,-4.883,-71.289
1789911316.393117,3.418,-20.996,15.137,-52.246
1789911316.397699,26.855,-25.879,18.555,-33.691
1789911316.401579,-65.430,-25.879,3.418,-51.758
1789911316.405460,-107.910,-28.809,16.113,-62.500
1789911316.409341,-41.016,-30.762,26.855,-29.785
1789911316.413221,30.273,-32.227,25.879,-1.465
1789911316.417102,-40.527,-34.180,4.395,-16.113
1789911316.420982,-105.957,-38.086,-10.742,-27.832
1789911316.424863,-58.594,-35.156,10.254,-15.625
1789911316.428744,13.672,-33.203,27.344,-2.930
1789911316.432624,-18.066,-42.480,8.789,-10.254
1789911316.436505,-100.586,-40.039,2.930,-40.527
1789911316.440385,-82.520,-37.109,8.301,-44.434
1789911316.444482,5.371,-40.527,0.000,-20.996
1789911316.448363,25.391,-44.434,-1.465,-11.230
1789911316.452243,-66.895,-41.992,12.695,-36.621
1789911316.456124,-90.332,-30.273,16.113,-45.898
1789911316.460005,-16.602,-36.621,18.066,-26.855
1789911316.463885,22.949,-44.922,17.090,-14.648
1789911316.467766,-53.223,-39.551,12.207,-34.180
1789911316.471647,-105.957,-40.039,10.254,-43.457
1789911316.475527,-46.875,-37.109,-2.441,-29.785
1789911316.479408,45.898,-19.043,-15.137,-6.836
1789911316.483289,1.465,-18.555,-25.391,-16.602
1789911316.487169,-83.008,-25.391,-33.691,-46.387
1789911316.491232,-51.270,-21.484,-50.293,-46.387
1789911316.495113,41.504,-19.531,-69.336,-23.926
1789911316.498993,17.090,-30.762,-74.219,-12.695
1789911316.502874,-86.914,-36.621,-64.453,-38.086
1789911316.506755,-71.777,-30.762,-58.594,-36.621
1789911316.510636,4.395,-35.645,-42.480,-22.949
1789911316.514516,17.090,-20.508,-49.805,-18.555
1789911316.518397,-70.801,-15.625,-53.223,-27.344
1789911316.522278,-114.746,-31.250,-42.969,-45.898
1789911316.526159,-43.457,-33.691,-41.504,-41.016
1789911316.530040,20.508,-24.414,-38.086,-18.066
1789911316.533920,-67.871,-27.832,-39.062,-34.180
1789911316.538184,-127.441,-39.551,-40.039,-52.734
1789911316.542065,-61.035,-41.504,-31.250,-40.527
1789911316.545945,13.672,-36.621,-33.203,-20.508
1789911316.549826,-41.016,-29.297,-45.898,-39.062
1789911316.553707,-103.027,-25.879,-62.988,-54.199
1789911316.557588,-53.223,-25.391,-58.105,-24.902
1789911316.561469,-7.812,-26.855,-24.414,-26.367
1789911316.565350,-39.551,-25.391,-32.227,-41.016
1789911316.569231,-104.492,-31.250,-42.480,-47.363
1789911316.573112,-91.309,-41.016,-28.320,-54.199
1789911316.576993,-17.090,-37.598,-37.598,-54.199
1789911316.580874,0.000,-32.715,-44.922,-50.293
1789911316.585096,-83.984,-32.715,-42.969,-62.988
1789911316.588977,-119.629,-37.598,-41.016,-71.777
1789911316.592858,-54.688,-48.340,-36.621,-56.152
1789911316.596739,16.602,-48.340,-35.645,-30.762
1789911316.600620,-51.758,-49.316,-41.504,-46.387
1789911316.604501,-121.582,-49.316,-33.203,-67.871
1789911316.608382,-71.289,-42.480,-20.020,-46.387
1789911316.612263,15.137,-44.434,-15.137,-18.555
1789911316.616144,-14.648,-46.875,-19.531,-27.344
1789911316.620025,-105.469,-37.109,-16.113,-38.574
1789911316.623907,-82.520,-29.785,-0.488,-35.645
1789911316.627788,9.766,-25.391,0.977,-20.996
1789911316.631983,10.742,-20.020,13.184,-20.996
1789911316.635864,-82.031,-15.625,19.531,-39.551
1789911316.639745,-87.891,-12.695,15.137,-44.922
1789911316.643626,8.301,0.977,31.250,-26.367
1789911316.647507,18.555,0.000,29.785,-26.855
1789911316.651389,-87.402,-10.254,31.738,-57.617
1789911316.655270,-136.230,-7.812,54.688,-78.613
1789911316.659151,-95.215,3.418,68.848,-94.238
1789911316.663032,-31.250,28.809,88.379,-88.379
1789911316.666914,-95.215,39.551,91.309,-102.539
1789911316.670795,-207.031,28.320,115.723,-165.527
1789911316.674676,-223.633,29.785,140.137,-212.891
1789911316.678845,-146.484,34.668,141.113,-191.406
1789911316.682727,-157.715,38.086,160.645,-176.270
1789911316.686608,-239.258,47.363,160.156,-195.312
1789911316.690490,-221.680,49.805,150.879,-187.500
1789911316.694371,-139.648,28.320,154.297,-169.434
1789911316.698252,-102.539,19.043,141.113,-142.578
1789911316.702134,-191.406,15.137,127.441,-155.762
1789911316.706015,-239.258,-18.555,125.977,-175.781
1789911316.709896,-116.699,-28.809,120.117,-104.004
1789911316.713778,-22.949,-8.789,112.793,-69.824
1789911316.717659,-105.469,-10.742,94.238,-98.633
1789911316.721540,-149.414,-15.625,84.473,-95.215
1789911316.725679,-74.707,-16.113,70.801,-72.266
1789911316.729561,1.953,-29.785,71.289,-48.340
1789911316.733442,-52.246,-39.551,51.758,-56.641
1789911316.737324,-115.723,-41.504,39.062,-57.129
1789911316.741205,-96.191,-45.898,54.688,-65.918
1789911316.745087,10.254,-45.898,73.242,-36.621
1789911316.748968,43.945,-38.574,64.941,-25.391
1789911316.752850,-66.895,-48.340,75.684,-47.852
1789911316.756731,-63.965,-45.898,88.379,-39.062
1789911316.760612,35.156,-41.016,90.332,-18.066
1789911316.764494,54.688,-46.875,82.520,-2.441
1789911316.768375,-14.648,-47.363,68.359,-24.414
1789911316.772486,-41.992,-44.922,73.730,-32.227
1789911316.776368,29.297,-43.457,81.543,-0.977
1789911316.780250,82.031,-42.480,83.496,11.719
1789911316.784131,14.648,-44.434,74.707,-6.348
1789911316.788013,-41.992,-62.012,74.707,-25.879
1789911316.791894,-7.812,-61.035,83.008,-11.230
1789911316.795776,77.148,-47.852,69.336,27.344
1789911316.799657,30.762,-51.758,51.270,11.230
1789911316.803539,-62.988,-50.781,57.617,-32.227
1789911316.807420,-32.227,-50.781,66.406,-32.715
1789911316.811302,65.430,-51.758,48.340,2.930
1789911316.815184,67.383,-41.016,46.387,15.137
1789911316.819271,-24.414,-42.480,45.898,-7.324
1789911316.823153,-27.344,-52.734,37.109,-7.324
1789911316.827035,42.969,-48.340,40.527,13.672
1789911316.830916,81.055,-54.688,73.730,26.367
1789911316.834798,-8.301,-59.570,75.195,-14.160
1789911316.838680,-51.270,-40.039,27.344,-39.062
1789911316.842561,21.973,-46.875,86.914,-12.695
1789911316.846443,79.590,-60.547,96.191,17.090
1789911316.850325,11.719,-52.246,25.879,10.254
1789911316.854206,-61.035,-58.105,41.016,-6.348
1789911316.858088,-12.207,-48.340,29.297,-5.859
1789911316.861969,73.730,-44.434,4.883,6.348
1789911316.866036,39.551,-47.363,-25.391,14.160
1789911316.869917,-55.664,-44.922,-34.668,-13.184
1789911316.873799,-31.250,-50.293,-44.434,-17.090
1789911316.877681,59.082,-46.387,-63.477,16.602
1789911316.881563,51.758,-43.457,-44.922,15.625
1789911316.885444,-31.738,-45.410,-58.105,5.859
1789911316.889326,-55.664,-51.758,-52.734,18.555
1789911316.893208,23.926,-50.781,-29.785,29.785
1789911316.897089,65.918,-51.270,-28.809,37.598
1789911316.900971,-10.254,-45.898,-22.949,35.156
1789911316.904853,-36.133,-42.969,-9.277,16.602
1789911316.908735,22.461,-48.828,4.395,37.109
1789911316.913012,0.000,-44.434,2.441,87.402
1789911316.916893,0.000,-34.668,16.113,74.707
1789911316.920775,0.000,-36.133,30.273,50.781
1789911316.924657,0.000,-33.203,45.898,68.359
1789911316.928539,0.000,-29.785,56.641,105.957
1789911316.932421,0.000,-33.203,48.828,94.727
1789911316.936303,0.000,-31.250,58.594,56.641
1789911316.940185,0.000,-38.574,75.684,39.551
1789911316.944067,0.000,-43.945,74.219,56.152
1789911316.947949,0.000,-44.434,51.270,76.172
1789911316.951831,0.000,-38.574,51.270,39.062
1789911316.955712,0.000,-31.250,67.871,11.230
1789911316.959945,53.711,-35.156,64.453,33.691
1789911316.963827,109.863,-33.691,46.875,69.824
1789911316.967709,27.832,-32.227,41.504,34.668
1789911316.971591,-44.434,-40.527,27.832,-2.441
1789911316.975473,10.254,-41.016,17.578,17.578
1789911316.979355,102.539,-41.504,15.625,34.668
1789911316.983238,41.992,-42.969,6.348,14.160
1789911316.987119,-59.570,-48.828,0.000,-5.371
1789911316.991002,-19.043,-47.363,-10.742,4.883
1789911316.994884,81.543,-37.109,-35.156,30.762
1789911316.998766,52.734,-41.016,-65.430,15.625
1789911317.002648,-63.965,-46.875,-81.543,-12.207
1789911317.006843,-72.754,-46.387,-46.875,-24.902
1789911317.010725,21.973,-49.316,-28.320,-10.742
1789911317.014607,46.875,-42.480,-33.203,2.930
1789911317.018489,-66.406,-41.992,-21.973,-41.504
1789911317.022371,-115.234,-57.129,-14.160,-51.270
1789911317.026253,-17.090,-67.383,2.441,-18.555
1789911317.030136,50.781,-48.828,11.719,-9.277
1789911317.034018,-30.762,-41.504,14.160,-24.414
1789911317.037900,-89.355,-47.852,24.414,-41.992
1789911317.041782,-76.172,-54.688,33.691,-54.199
1789911317.045664,-2.441,-48.828,42.969,-26.855
1789911317.049546,-33.203,-47.363,55.176,-26.367
1789911317.053727,0.000,-57.617,0.000,-60.547
1789911317.057610,0.000,-60.547,0.000,-81.055
1789911317.061492,0.000,-53.223,0.000,-51.758
1789911317.065374,0.000,-43.457,0.000,-33.691
1789911317.069257,0.000,-55.176,0.000,-78.125
1789911317.073139,0.000,-55.176,0.000,-80.566
1789911317.077021,0.000,-56.152,0.000,-48.340
1789911317.080904,0.000,-53.223,0.000,-28.809
1789911317.084786,0.000,-47.363,0.000,-50.293
1789911317.088668,0.000,-41.016,0.000,-62.988
1789911317.092551,0.000,-34.668,0.000,-42.480
1789911317.096433,0.000,-43.457,0.000,-21.484
1789911317.100784,-47.363,-43.945,-9.766,-40.039
1789911317.104666,-110.840,-46.875,-5.371,-65.430
1789911317.108549,-45.898,-50.781,-5.859,-36.621
1789911317.112431,58.105,-35.645,9.277,-8.789
1789911317.116314,-13.184,-40.527,31.250,-34.668
1789911317.120196,-133.301,-56.641,58.105,-69.824
1789911317.124079,-93.262,-48.828,75.195,-70.312
1789911317.127961,6.836,-41.016,89.844,-30.273
1789911317.131844,11.719,-42.969,108.398,-17.578
1789911317.135726,-92.285,-43.945,94.238,-50.781
1789911317.139609,-125.000,-52.246,57.129,-59.570
1789911317.143491,-43.945,-54.199,48.340,-49.805
1789911317.147846,33.691,-40.039,49.316,-28.809
1789911317.151728,-59.570,-40.039,50.781,-31.738
1789911317.155611,-128.418,-49.316,62.012,-41.992
1789911317.159494,-47.363,-44.922,73.730,-37.598
1789911317.163377,38.086,-36.133,70.312,-21.973
1789911317.167259,-36.133,-41.504,51.758,-33.691
1789911317.171142,-119.629,-44.434,56.152,-55.664
1789911317.175025,-76.660,-45.898,68.848,-47.852
1789911317.178907,2.930,-47.852,54.199,-34.180
1789911317.182790,-18.066,-40.527,49.316,-24.414
1789911317.186673,-109.863,-40.527,63.965,-45.898
1789911317.190556,-91.309,-38.574,70.801,-54.199
1789911317.194622,10.742,-26.855,62.500,-29.785
1789911317.198505,17.090,-29.297,26.855,-18.066
1789911317.202387,-92.773,-41.992,36.133,-52.246
1789911317.206270,-88.379,-35.156,54.199,-63.477
1789911317.210153,-7.812,-29.297,41.504,-39.062
1789911317.214036,12.695,-38.574,42.480,-28.320
1789911317.217919,-72.754,-45.410,53.711,-34.668
1789911317.221801,-106.934,-40.039,67.383,-45.410
1789911317.225684,-45.410,-31.738,83.496,-26.367
1789911317.229567,22.461,-37.109,61.035,-9.766
1789911317.233450,-20.020,-40.527,15.625,-14.648
1789911317.237333,-105.957,-41.016,11.230,-39.551
1789911317.241392,-65.430,-41.016,-0.488,-61.523
1789911317.245275,51.270,-36.621,-2.441,-24.902
1789911317.249158,35.156,-31.250,2.930,-5.371
1789911317.253041,-81.543,-39.062,20.020,-57.129
1789911317.256924,-71.777,-41.992,5.371,-60.059
1789911317.260806,13.672,-40.039,-24.902,-22.461
1789911317.264689,41.016,-41.992,-43.457,-24.414
1789911317.268572,-57.617,-38.574,-52.246,-45.898
1789911317.272455,-89.355,-36.133,-33.203,-48.828
1789911317.276338,-4.883,-36.133,-45.410,-23.438
1789911317.280221,51.270,-34.180,-41.504,-1.953
1789911317.284104,-16.602,-29.297,-66.895,-26.855
1789911317.288358,-73.242,-28.809,-100.098,-41.016
1789911317.292242,-23.926,-12.695,-86.426,-22.461
1789911317.296124,45.898,12.207,-96.680,-3.418
1789911317.300008,14.160,33.691,-97.656,-9.766
1789911317.303890,-56.152,49.805,-79.590,-37.109
1789911317.307774,-38.574,53.223,-84.961,-42.480
1789911317.311656,41.016,51.270,-76.660,-9.766
1789911317.315540,40.039,52.734,-82.031,1.465
1789911317.319422,-46.875,46.387,-71.777,-30.762
1789911317.323306,-52.246,42.480,-111.816,-41.016
1789911317.327188,24.414,51.758,-213.379,-3.418
1789911317.331072,80.566,49.316,-237.793,15.137
1789911317.335270,5.371,42.969,-231.934,-23.438
1789911317.339153,-56.641,34.668,-236.816,-41.504
1789911317.343036,15.625,29.785,-215.820,-16.113
1789911317.346919,91.309,36.133,-212.402,15.625
1789911317.350802,14.648,33.203,-232.910,-0.488
