timestamp,TP9,AF7,AF8,TP10
1789994143.267916,0.000,-0.488,0.000,0.000
1789994143.271775,0.000,0.000,0.000,0.000
1789994143.275635,-2.930,-0.488,-2.441,-4.395
1789994143.279495,5.859,-0.488,2.930,9.277
1789994143.283354,-34.180,1.953,-21.484,-53.223
1789994143.287214,-94.238,-4.395,-83.496,-138.184
1789994143.291073,-93.750,-11.230,-98.633,-121.094
1789994143.294933,-87.891,-7.324,-86.914,-105.957
1789994143.298792,-64.453,-7.324,-87.402,-97.656
1789994143.302652,-49.316,-5.859,-87.891,-84.473
1789994143.306512,-61.035,-8.301,-88.867,-78.613
1789994143.310371,-57.129,-17.090,-84.961,-69.336
1789994143.313341,-37.109,-18.555,-82.031,-58.105
1789994143.317127,-30.762,-18.066,-81.543,-53.711
1789994143.320912,-32.227,-23.438,-79.590,-45.898
1789994143.324698,-24.414,-31.738,-75.195,-47.852
1789994143.328483,-8.789,-28.809,-76.172,-44.434
1789994143.332269,3.418,-26.855,-76.660,-27.344
1789994143.336054,-1.953,-31.250,-66.406,-20.996
1789994143.339839,-5.859,-33.203,-70.312,-25.391
1789994143.343625,7.324,-38.086,-69.824,-11.230
1789994143.347410,20.996,-37.598,-55.664,3.906
1789994143.351196,15.625,-33.691,-54.688,3.418
1789994143.354981,10.742,-28.809,-52.246,5.371
1789994143.356260,24.902,-27.344,-49.316,7.812
1789994143.359941,42.969,-32.227,-51.758,19.531
1789994143.363622,43.945,-33.203,-50.293,26.367
1789994143.367303,30.273,-32.227,-50.293,23.438
1789994143.370984,27.832,-37.109,-49.316,25.391
1789994143.374665,40.039,-41.016,-51.758,26.367
1789994143.378346,36.133,-42.480,-54.688,20.020
1789994143.382027,25.879,-41.504,-47.363,25.391
1789994143.385708,28.809,-36.133,-41.992,36.621
1789994143.389389,38.574,-36.133,-42.969,34.180
1789994143.393070,46.387,-37.109,-42.480,32.715
1789994143.396751,36.621,-40.527,-39.062,43.457
1789994143.396675,31.250,-43.457,-34.668,50.781
1789994143.400252,42.480,-40.039,-34.668,40.039
1789994143.403828,45.898,-40.039,-36.133,45.898
1789994143.407405,38.086,-37.598,-31.250,44.434
1789994143.410981,27.344,-33.691,-29.297,37.109
1789994143.414558,31.738,-37.109,-41.504,27.344
1789994143.418135,47.852,-40.039,-47.363,21.973
1789994143.421711,52.734,-36.133,-36.133,33.203
1789994143.425288,44.434,-29.297,-39.062,27.344
1789994143.428865,35.156,-30.762,-44.922,18.555
1789994143.432441,45.410,-37.109,-36.133,31.738
1789994143.436018,54.199,-38.086,-37.109,46.387
1789994143.437190,25.391,-33.203,-36.621,19.043
1789994143.440717,8.301,-24.414,-42.969,-5.371
1789994143.444243,28.809,-27.344,-57.617,-2.441
1789994143.447770,40.527,-24.902,-52.246,10.254
1789994143.451296,32.715,-22.949,-46.875,11.230
1789994143.454823,20.508,-30.273,-47.852,2.441
1789994143.458349,21.973,-31.250,-50.781,5.859
1789994143.461876,35.156,-25.879,-51.270,16.602
1789994143.465403,31.250,-25.879,-48.340,25.879
1789994143.468929,17.090,-26.367,-52.246,34.668
1789994143.472456,16.602,-27.832,-54.199,17.578
1789994143.475982,29.297,-31.738,-50.293,10.742
1789994143.477221,25.391,-31.738,-49.316,19.531
1789994143.480709,12.207,-34.668,-49.316,10.742
1789994143.484198,21.484,-36.133,-46.387,14.160
1789994143.487686,37.598,-32.715,-43.945,25.879
1789994143.491175,33.203,-35.156,-41.016,19.043
1789994143.494663,11.230,-39.062,-37.109,2.441
1789994143.498152,5.859,-36.133,-41.992,4.883
1789994143.501640,13.184,-36.621,-46.875,11.719
1789994143.505128,17.090,-36.133,-43.457,5.371
1789994143.508617,10.254,-31.250,-46.875,-7.812
1789994143.512105,-0.488,-26.855,-47.852,-9.766
1789994143.515594,5.859,-32.227,-45.410,-13.672
1789994143.518873,16.113,-38.086,-51.758,-20.020
1789994143.522359,7.812,-38.086,-56.152,-11.719
1789994143.525844,-5.371,-41.504,-56.152,-7.324
1789994143.529330,-9.766,-39.551,-52.246,-12.207
1789994143.532815,-6.836,-38.086,-46.387,-12.695
1789994143.536301,-6.348,-43.457,-45.898,-15.625
1789994143.539787,-16.113,-39.551,-43.945,-10.254
1789994143.543272,-20.020,-32.715,-43.457,-14.648
1789994143.546757,-10.254,-29.785,-42.969,-13.184
1789994143.550243,-3.906,-32.227,-43.457,-6.836
1789994143.553729,-14.648,-38.574,-42.969,-19.043
1789994143.557214,-23.926,-36.621,-38.086,-26.855
1789994143.562364,-10.742,-32.227,-38.086,-21.484
1789994143.565870,2.930,-31.738,-35.645,-7.324
1789994143.569375,-7.812,-32.227,-38.086,-9.277
1789994143.572880,-16.113,-31.738,-43.945,-21.973
1789994143.576385,-12.695,-33.691,-46.875,-20.508
1789994143.579891,-8.301,-34.180,-47.852,-16.113
1789994143.583396,-6.836,-35.156,-48.340,-17.578
1789994143.586902,-13.184,-39.551,-44.922,-11.719
1789994143.590407,-11.230,-38.086,-39.551,-5.371
1789994143.593912,-6.836,-41.992,-44.434,-15.625
1789994143.597418,-9.766,-41.992,-33.691,-23.926
1789994143.600923,-18.066,-36.133,-27.832,-23.926
1789994143.603847,-20.996,-37.109,-32.227,-24.902
1789994143.607346,-19.043,-38.086,-31.738,-28.320
1789994143.610846,-10.742,-36.621,-32.227,-31.250
1789994143.614345,-12.695,-30.273,-29.785,-22.461
1789994143.617844,-31.250,-34.668,-35.645,-20.508
1789994143.621343,-25.391,-44.434,-31.738,-25.391
1789994143.624843,-15.137,-38.574,-32.227,-16.602
1789994143.628342,-29.785,-40.039,-36.133,-23.438
1789994143.631841,-42.969,-41.016,-31.250,-34.668
1789994143.635341,-30.273,-36.621,-35.156,-27.344
1789994143.638840,-18.066,-37.598,-39.062,-23.438
1789994143.642339,-18.555,-34.668,-39.551,-27.832
1789994143.647038,-28.809,-30.273,-37.598,-27.344
1789994143.650548,-35.645,-30.273,-37.109,-27.832
1789994143.654059,-16.602,-36.621,-37.598,-24.902
1789994143.657569,-9.766,-40.527,-31.738,-22.461
1789994143.661080,-36.621,-47.852,-31.250,-38.086
1789994143.664590,-46.875,-48.828,-39.062,-42.969
1789994143.668100,-35.156,-49.316,-43.945,-42.480
1789994143.671611,-24.414,-47.852,-46.387,-41.992
1789994143.675121,-34.180,-41.504,-42.969,-38.086
1789994143.678632,-41.504,-40.039,-41.504,-34.180
1789994143.682142,-33.691,-34.668,-40.039,-38.574
1789994143.685652,-23.438,-34.180,-47.852,-40.039
1789994143.690026,-25.391,-39.062,-44.434,-36.133
1789994143.693544,-38.086,-41.992,-35.156,-36.133
1789994143.697062,-43.945,-44.434,-43.945,-45.898
1789994143.700579,-28.320,-40.527,-40.039,-41.504
1789994143.704097,-23.438,-43.457,-38.086,-27.344
1789994143.707614,-39.062,-41.504,-41.992,-35.645
1789994143.711132,-48.340,-35.156,-33.203,-37.598
1789994143.714649,-39.062,-35.645,-34.180,-23.438
1789994143.718167,-35.645,-37.598,-40.527,-27.832
1789994143.721684,-48.828,-36.133,-39.551,-36.133
1789994143.725202,-43.945,-34.180,-32.227,-29.785
1789994143.728720,-32.227,-36.621,-27.344,-36.133
1789994143.734557,-26.855,-37.598,-29.297,-37.109
1789994143.738093,-33.203,-36.621,-34.180,-37.598
1789994143.741628,-52.734,-38.574,-34.668,-42.480
1789994143.745163,-54.688,-41.504,-31.250,-36.621
1789994143.748698,-35.156,-41.992,-42.969,-39.062
1789994143.752233,-36.621,-40.039,-46.387,-40.527
1789994143.755768,-52.734,-33.691,-36.133,-45.410
1789994143.759304,-49.805,-33.203,-42.480,-47.852
1789994143.762839,-33.691,-33.691,-41.992,-38.086
1789994143.766374,-29.297,-26.855,-36.133,-33.691
1789994143.769909,-43.457,-32.715,-42.969,-38.574
1789994143.773444,-53.223,-40.039,-47.852,-43.457
1789994143.778874,-47.363,-40.527,-37.598,-35.645
1789994143.782422,-40.039,-39.551,-32.227,-32.715
1789994143.785970,-47.852,-36.133,-38.574,-30.762
1789994143.789519,-61.035,-37.109,-33.203,-30.273
1789994143.793067,-46.387,-39.062,-23.438,-32.227
1789994143.796615,-29.297,-33.691,-33.203,-29.297
1789994143.800164,-40.527,-33.691,-36.133,-36.621
1789994143.803712,-60.059,-37.598,-38.086,-38.574
1789994143.807260,-48.340,-35.645,-38.574,-19.043
1789994143.810809,-21.484,-37.598,-30.273,-8.301
1789994143.814357,-38.086,-36.621,-32.715,-27.832
1789994143.817905,-62.012,-40.039,-36.133,-51.270
1789994143.822863,-55.176,-49.805,-30.762,-40.527
1789994143.826420,-42.969,-53.223,-22.949,-35.645
1789994143.829977,-39.062,-45.410,-19.531,-47.852
1789994143.833535,-52.246,-45.898,-24.902,-55.176
1789994143.837092,-61.523,-49.805,-30.273,-50.293
1789994143.840649,-47.363,-41.992,-29.297,-39.062
1789994143.844207,-30.762,-41.504,-24.414,-33.203
1789994143.847764,-34.180,-39.551,-28.320,-33.691
1789994143.851321,-48.340,-36.133,-33.203,-38.086
1789994143.854879,-42.480,-38.574,-28.809,-38.086
1789994143.858436,-33.203,-36.133,-33.203,-41.992
1789994143.861994,-40.527,-36.621,-31.250,-44.922
1789994143.868096,-46.387,-43.945,-26.367,-39.551
1789994143.871669,-43.457,-45.410,-29.785,-35.156
1789994143.875241,-29.785,-40.527,-30.762,-26.855
1789994143.878814,-29.785,-39.062,-29.785,-26.367
1789994143.882386,-45.410,-41.504,-34.668,-33.203
1789994143.885959,-41.992,-43.945,-35.156,-26.367
1789994143.889531,-23.926,-41.992,-32.715,-32.227
1789994143.893104,-21.973,-36.133,-33.691,-37.598
1789994143.896676,-39.551,-37.109,-32.715,-30.762
1789994143.900249,-47.852,-40.039,-26.855,-23.926
1789994143.903821,-33.691,-37.109,-22.949,-21.484
1789994143.907394,-20.996,-32.715,-26.367,-25.879
1789994143.912989,-27.832,-29.297,-28.320,-28.320
1789994143.916573,-39.551,-27.832,-39.062,-26.855
1789994143.920156,-34.668,-32.227,-38.086,-22.949
1789994143.923740,-17.578,-31.250,-32.227,-16.602
1789994143.927324,-21.973,-32.227,-36.133,-17.578
1789994143.930907,-38.574,-35.156,-39.551,-25.391
1789994143.934491,-34.668,-31.250,-40.039,-24.902
1789994143.938075,-24.902,-30.762,-38.574,-19.043
1789994143.941659,-28.809,-28.320,-41.016,-29.785
1789994143.945242,-32.715,-23.438,-36.133,-41.016
1789994143.948826,-32.715,-26.367,-37.598,-45.898
1789994143.952410,-29.785,-30.273,-41.504,-41.992
1789994143.957962,-20.996,-30.273,-33.691,-35.645
1789994143.961556,-26.367,-31.250,-31.738,-41.504
1789994143.965150,-41.992,-31.738,-31.250,-39.062
1789994143.968744,-39.551,-35.645,-32.715,-31.250
1789994143.972338,-27.344,-38.086,-37.109,-29.297
1789994143.975932,-37.598,-38.086,-37.109,-36.621
1789994143.979526,-52.246,-38.574,-39.551,-41.992
1789994143.983120,-43.945,-40.039,-41.016,-42.969
1789994143.986714,-27.832,-38.086,-36.621,-36.621
1789994143.990308,-30.762,-40.527,-35.156,-34.180
1789994143.993902,-41.016,-43.945,-33.203,-34.668
1789994143.997496,-44.434,-38.086,-32.227,-36.621
1789994144.002980,-36.133,-35.156,-32.715,-36.133
1789994144.006583,-30.273,-35.156,-35.156,-36.621
1789994144.010187,-40.527,-33.691,-37.598,-41.016
1789994144.013790,-44.434,-32.715,-38.574,-43.457
1789994144.017393,-37.109,-36.133,-39.062,-44.434
1789994144.020997,-35.156,-40.527,-39.551,-37.598
1789994144.024600,-46.875,-39.062,-41.992,-34.180
1789994144.028203,-48.340,-32.227,-39.551,-43.945
1789994144.031806,-36.621,-28.809,-38.086,-50.781
1789994144.035409,-33.691,-34.180,-44.434,-40.527
1789994144.039013,-40.527,-36.621,-42.480,-43.457
1789994144.042616,-48.340,-37.109,-38.086,-57.617
1789994144.049572,-41.016,-40.039,-41.992,-47.852
1789994144.053191,-20.508,-36.621,-47.852,-39.551
1789994144.056810,-19.043,-38.574,-50.781,-38.086
1789994144.060429,-32.227,-40.039,-47.852,-26.855
1789994144.064047,-47.852,-40.527,-35.645,-37.109
1789994144.067666,-36.133,-39.551,-32.715,-41.016
1789994144.071285,-22.461,-39.062,-33.691,-30.762
1789994144.074904,-36.133,-41.504,-24.414,-32.715
1789994144.078522,-58.105,-50.293,-25.391,-42.480
1789994144.082141,-56.641,-51.758,-27.344,-45.410
1789994144.085760,-47.363,-46.875,-18.555,-44.434
1789994144.089379,-56.641,-55.176,-18.066,-48.828
1789994144.096161,0.000,-56.641,-21.484,0.000
1789994144.099794,0.000,-51.758,-25.879,0.000
1789994144.103426,0.000,-49.805,-31.738,0.000
1789994144.107059,0.000,-44.922,-31.738,0.000
1789994144.110692,0.000,-44.922,-32.715,0.000
1789994144.114324,0.000,-45.410,-30.762,0.000
1789994144.117957,0.000,-44.434,-26.367,0.000
1789994144.121590,0.000,-44.922,-23.926,0.000
1789994144.125222,0.000,-45.898,-27.344,0.000
1789994144.128855,0.000,-39.062,-32.227,0.000
1789994144.132488,0.000,-35.156,-23.438,0.000
1789994144.136120,0.000,-34.668,-20.508,0.000
1789994144.142580,-42.969,-33.691,-30.762,-41.016
1789994144.146224,-49.805,-36.133,-31.250,-39.062
1789994144.149869,-44.922,-41.504,-28.809,-40.527
1789994144.153513,-36.133,-48.828,-26.855,-35.156
1789994144.157158,-48.828,-53.223,-27.344,-41.504
1789994144.160802,-54.688,-48.828,-24.414,-43.457
1789994144.164446,-41.992,-42.480,-13.672,-38.574
1789994144.168091,-28.320,-45.410,-13.672,-30.762
1789994144.171735,-25.879,-44.922,-19.043,-22.949
1789994144.175380,-38.574,-32.227,-20.020,-23.926
1789994144.179024,-41.504,-29.297,-24.902,-29.785
1789994144.182669,-30.762,-35.156,-28.809,-30.273
1789994144.188897,-30.273,-33.691,-33.691,-26.367
1789994144.192551,-44.922,-37.598,-32.227,-30.273
1789994144.196206,-48.340,-38.574,-27.344,-29.785
1789994144.199861,-26.855,-31.738,-26.855,-25.391
1789994144.203515,-21.973,-34.180,-25.879,-27.344
1789994144.207170,-37.598,-35.156,-31.738,-29.785
1789994144.210825,-44.434,-34.668,-36.133,-34.668
1789994144.214479,-39.551,-36.621,-40.527,-30.273
1789994144.218134,-31.250,-35.645,-36.133,-23.926
1789994144.221789,-35.156,-41.504,-29.785,-38.574
1789994144.225443,-46.875,-48.340,-37.598,-44.434
1789994144.229098,-45.898,-44.922,-37.598,-40.039
1789994144.235042,-37.598,-38.574,-32.715,-41.992
1789994144.238706,-36.133,-32.227,-33.203,-35.156
1789994144.242369,-47.363,-35.645,-32.227,-39.062
1789994144.246032,-51.758,-40.039,-36.133,-50.781
1789994144.249696,-38.086,-35.645,-34.668,-44.922
1789994144.253359,-27.832,-30.762,-26.855,-33.203
1789994144.257022,-35.645,-30.762,-30.762,-34.180
1789994144.260686,-47.852,-32.227,-38.086,-34.668
1789994144.264349,-34.180,-31.250,-31.250,-39.062
1789994144.268013,-12.695,-29.785,-29.785,-29.785
1789994144.271676,-29.785,-34.668,-32.715,-28.320
1789994144.275339,-39.062,-37.598,-31.250,-28.320
1789994144.281236,-30.762,-37.109,-34.668,-27.344
1789994144.284908,-30.273,-36.621,-33.691,-32.715
1789994144.288579,-31.738,-35.645,-28.809,-22.949
1789994144.292250,-40.527,-37.598,-34.180,-22.461
1789994144.295922,-36.621,-38.086,-31.250,-19.043
1789994144.299593,-29.785,-30.762,-28.320,-30.762
1789994144.303265,-39.062,-32.715,-41.504,-47.852
1789994144.306936,-47.363,-37.598,-45.410,-44.922
1789994144.310608,-47.852,-37.109,-41.992,-56.152
1789994144.314279,-37.109,-36.133,-42.480,-59.570
1789994144.317950,-31.738,-37.598,-40.039,-48.340
1789994144.321622,-46.875,-38.086,-39.551,-51.758
1789994144.327420,0.000,-33.691,-44.434,-52.246
1789994144.331099,0.000,-36.133,-48.340,-48.340
1789994144.334778,0.000,-37.598,-45.898,-48.828
1789994144.338457,0.000,-34.668,-41.504,-46.387
1789994144.342136,0.000,-34.668,-39.551,-50.781
1789994144.345815,0.000,-38.574,-42.480,-46.875
1789994144.349494,0.000,-38.086,-43.457,-42.480
1789994144.353172,0.000,-30.762,-40.039,-43.457
1789994144.356851,0.000,-29.297,-41.016,-56.152
1789994144.360530,0.000,-32.715,-40.527,-57.129
1789994144.364209,0.000,-27.832,-43.945,-41.992
1789994144.367888,0.000,-28.809,-49.316,-38.574
1789994144.373468,-42.969,-34.668,-42.480,-35.645
1789994144.377153,-46.387,-31.738,-37.109,-31.250
1789994144.380838,-36.621,-29.785,-44.922,-35.645
1789994144.384524,-29.785,-28.809,-46.875,-37.109
1789994144.388209,-40.039,-32.227,-41.504,-40.039
1789994144.391894,-48.340,-35.156,-40.527,-40.039
1789994144.395579,-40.039,-35.156,-48.340,-35.645
1789994144.399264,-23.926,-37.109,-57.617,-36.133
1789994144.402950,-35.645,-38.086,-52.734,-47.852
1789994144.406635,-44.434,-38.086,-48.340,-45.410
1789994144.410320,-26.855,-31.250,-48.340,-38.574
1789994144.414005,-19.531,-31.250,-43.457,-51.270
1789994144.420609,-32.227,-38.086,-39.551,-51.270
1789994144.424304,-47.852,-41.992,-49.805,-47.363
1789994144.427998,-53.223,-41.504,-54.688,-53.711
1789994144.431693,-41.504,-36.133,-46.875,-48.340
1789994144.435387,-34.668,-35.645,-42.969,-36.133
1789994144.439082,-46.387,-34.668,-42.969,-35.645
1789994144.442776,-58.594,-36.133,-46.875,-50.293
1789994144.446471,-45.410,-39.551,-44.922,-50.781
1789994144.450165,-26.367,-37.109,-42.969,-38.086
1789994144.453860,-38.086,-34.668,-41.504,-40.039
1789994144.457554,-46.875,-34.180,-36.621,-47.852
1789994144.461249,-34.668,-36.621,-35.645,-44.922
1789994144.467598,-24.414,-41.504,-44.922,-31.738
1789994144.471301,-34.180,-42.480,-45.410,-31.738
1789994144.475004,-47.852,-39.062,-36.621,-45.898
1789994144.478707,-41.504,-35.156,-37.598,-42.480
1789994144.482409,-34.180,-40.039,-39.062,-46.387
1789994144.486112,-26.367,-37.109,-38.574,-46.875
1789994144.489815,-33.691,-35.156,-38.574,-35.645
1789994144.493518,-41.504,-34.668,-38.574,-40.039
1789994144.497220,-31.250,-30.273,-40.527,-35.156
1789994144.500923,-28.809,-33.691,-47.363,-36.133
1789994144.504626,-41.016,-37.109,-43.457,-48.828
1789994144.508328,-45.898,-41.016,-36.133,-50.293
1789994144.514478,-36.621,-43.457,-41.016,-58.105
1789994144.518188,-29.785,-46.387,-40.527,-52.246
1789994144.521898,-33.691,-39.551,-41.504,-46.387
1789994144.525608,-43.457,-33.203,-42.969,-47.852
1789994144.529318,-37.598,-35.156,-30.762,-37.598
1789994144.533028,-24.902,-37.109,-35.156,-44.434
1789994144.536738,-37.598,-43.945,-49.316,-51.758
1789994144.540448,-57.617,-45.410,-47.852,-56.641
1789994144.544158,-57.129,-41.504,-44.922,-52.734
1789994144.547868,-38.574,-41.504,-41.016,-48.340
1789994144.551578,-38.574,-39.551,-38.086,-53.711
1789994144.555288,-52.246,-34.180,-38.574,-52.246
1789994144.561194,-41.504,-35.156,-44.922,-43.945
1789994144.564910,-12.695,-41.504,-40.039,-24.902
1789994144.568626,-11.719,-48.340,-35.645,-30.762
1789994144.572343,-49.316,-46.875,-42.480,-58.594
1789994144.576059,-64.453,-44.434,-36.133,-63.477
1789994144.579775,-50.293,-48.828,-26.855,-54.199
1789994144.583492,-45.898,-52.246,-20.996,-45.410
1789994144.587208,-54.199,-59.082,-20.996,-37.598
1789994144.590925,-58.105,-53.711,-16.113,-27.832
1789994144.594641,-50.781,-46.875,-7.324,-36.621
1789994144.598357,-41.016,-52.734,-13.184,-46.875
1789994144.602073,-49.805,-57.129,-23.438,-42.480
1789994144.607849,-67.871,-55.176,-28.809,-48.828
1789994144.611571,-69.336,-58.105,-23.438,-55.664
1789994144.615293,-52.246,-58.594,-17.090,-39.062
1789994144.619015,-46.875,-56.641,-12.695,-31.738
1789994144.622737,-60.059,-53.711,-15.625,-39.551
1789994144.626459,-67.383,-52.246,-16.113,-38.574
1789994144.630181,-43.945,-47.852,-10.254,-32.227
1789994144.633903,-30.273,-41.504,-13.184,-29.785
1789994144.637625,-49.316,-42.480,-14.648,-34.180
1789994144.641347,-54.199,-43.457,-18.555,-34.668
1789994144.645069,-37.598,-42.969,-21.973,-30.273
1789994144.648791,-23.926,-39.551,-21.973,-26.855
1789994144.654356,0.000,-38.086,-20.508,-20.996
1789994144.658082,0.000,-40.039,-24.414,-17.090
1789994144.661809,0.000,-37.598,-23.438,-18.066
1789994144.665536,0.000,-42.969,-23.438,-18.555
1789994144.669264,0.000,-46.387,-35.156,-20.508
1789994144.672991,0.000,-44.434,-37.109,-26.367
1789994144.676718,0.000,-45.898,-30.273,-24.414
1789994144.680444,0.000,-42.480,-26.855,-19.043
1789994144.684171,0.000,-42.969,-28.809,-30.273
1789994144.687898,0.000,-38.574,-32.227,-32.715
1789994144.691625,0.000,-36.621,-32.227,-25.879
1789994144.695352,0.000,-41.992,-29.785,-26.855
1789994144.700860,-24.414,-41.992,-35.645,-26.367
1789994144.704592,-34.668,-44.434,-36.133,-21.484
1789994144.708323,-41.992,-48.340,-31.738,-31.250
1789994144.712055,-34.180,-44.434,-29.297,-43.945
1789994144.715787,-25.879,-38.086,-27.832,-39.062
1789994144.719518,-26.367,-36.133,-27.344,-28.809
1789994144.723250,-34.180,-28.809,-26.367,-26.367
1789994144.726982,-32.715,-26.855,-25.879,-26.855
1789994144.730713,-22.461,-35.156,-26.855,-26.855
1789994144.734445,-19.531,-34.180,-30.273,-24.902
1789994144.738176,-25.391,-30.273,-29.297,-26.855
1789994144.741908,-40.039,-40.039,-31.250,-37.109
1789994144.747189,-37.598,-50.781,-37.598,-40.527
1789994144.750924,-31.250,-52.734,-33.691,-34.180
1789994144.754660,-43.945,-52.246,-31.738,-41.016
1789994144.758395,-54.688,-51.758,-43.457,-55.176
1789994144.762131,-44.434,-51.270,-42.969,-49.805
1789994144.765866,-33.691,-48.828,-37.598,-39.062
1789994144.769602,-37.109,-41.016,-36.133,-35.156
1789994144.773337,-41.016,-38.574,-28.320,-39.551
1789994144.777073,-40.039,-38.574,-31.250,-41.992
1789994144.780808,-32.227,-38.086,-35.156,-33.203
1789994144.784544,-29.297,-38.574,-27.832,-32.227
1789994144.788280,-38.574,-37.598,-27.832,-35.645
1789994144.794532,0.000,-36.133,-29.785,0.000
1789994144.798274,0.000,-38.086,-31.738,0.000
1789994144.802015,0.000,-45.410,-29.785,0.000
1789994144.805757,0.000,-47.852,-33.203,0.000
1789994144.809499,0.000,-41.016,-37.598,0.000
1789994144.813240,0.000,-36.621,-39.062,0.000
1789994144.816982,0.000,-34.668,-43.457,0.000
1789994144.820724,0.000,-36.621,-40.039,0.000
1789994144.824466,0.000,-33.691,-38.086,0.000
1789994144.828207,0.000,-40.039,-40.039,0.000
1789994144.831949,0.000,-38.574,-41.992,0.000
1789994144.835691,0.000,-27.344,-36.621,0.000
1789994144.838904,-37.109,-32.715,0.000,-32.715
1789994144.842645,-27.344,-31.250,0.000,-33.203
1789994144.846385,-26.367,-31.250,0.000,-35.645
1789994144.850126,-41.992,-27.832,0.000,-28.809
1789994144.853866,-51.758,-25.391,0.000,-29.297
1789994144.857606,-37.598,-31.250,0.000,-30.762
1789994144.861347,-29.785,-27.344,0.000,-28.320
1789994144.865087,-36.621,-26.855,0.000,-29.297
1789994144.868828,-43.945,-31.250,0.000,-20.508
1789994144.872568,-45.898,-30.273,0.000,-24.414
1789994144.876309,-29.785,-33.691,0.000,-37.109
1789994144.880049,-18.555,-32.715,0.000,-33.691
1789994144.886074,-27.832,-26.855,-42.480,-40.039
1789994144.889819,-38.574,-32.227,-46.387,-42.480
1789994144.893565,-23.926,-33.691,-42.480,-32.715
1789994144.897311,-8.789,-30.762,-31.250,-30.273
1789994144.901057,-17.578,-32.227,-36.133,-30.273
1789994144.904802,-30.273,-31.250,-40.039,-29.297
1789994144.908548,-29.785,-33.691,-36.133,-28.320
1789994144.912294,-21.484,-33.203,-36.621,-25.391
1789994144.916039,-22.461,-26.855,-41.992,-21.484
1789994144.919785,-31.250,-27.832,-41.992,-25.879
1789994144.923531,-27.344,-30.762,-41.992,-26.367
1789994144.927277,-15.625,-24.902,-37.598,-21.484
1789994144.933069,-14.160,-26.367,-31.738,-23.438
1789994144.936819,-22.949,-29.785,-35.645,-30.762
1789994144.940569,-30.273,-30.762,-29.785,-29.297
1789994144.944320,-22.461,-24.414,-27.344,-20.020
1789994144.948070,-8.301,-27.832,-28.809,-23.438
1789994144.951820,-14.648,-31.250,-28.809,-27.832
1789994144.955571,-23.926,-22.949,-26.367,-16.602
1789994144.959321,-19.043,-24.414,-31.738,-21.973
1789994144.963071,-13.672,-24.902,-36.621,-32.715
1789994144.966822,-16.113,-23.926,-28.320,-35.156
1789994144.970572,-24.414,-22.461,-20.508,-35.156
1789994144.974322,-23.926,-28.809,-21.973,-30.273
1789994144.979874,-14.160,-33.203,-27.832,-26.367
1789994144.983628,-15.137,-32.715,-29.785,-30.273
1789994144.987382,-22.949,-34.180,-31.738,-25.879
1789994144.991137,-27.832,-33.691,-31.250,-24.902
1789994144.994891,-17.090,-27.832,-30.273,-35.156
1789994144.998645,-9.766,-23.926,-31.250,-30.273
1789994145.002399,-24.414,-28.320,-41.992,-25.391
1789994145.006154,-42.969,-31.738,-43.457,-36.133
1789994145.009908,-37.598,-29.785,-36.133,-41.016
1789994145.013662,-22.949,-29.785,-36.621,-40.527
1789994145.017417,-28.809,-30.762,-29.297,-31.738
1789994145.021171,-34.668,-34.668,-25.879,-20.020
1789994145.026641,-24.414,-34.180,-31.250,-13.672
1789994145.030399,-16.113,-31.250,-38.086,-20.020
1789994145.034157,-23.926,-32.715,-40.527,-39.551
1789994145.037915,-32.227,-29.785,-38.574,-46.875
1789994145.041672,-36.133,-31.738,-40.527,-41.504
1789994145.045430,-33.203,-37.109,-41.504,-32.227
1789994145.049188,-24.902,-35.645,-42.969,-28.809
1789994145.052946,-37.598,-32.227,-40.527,-33.691
1789994145.056704,-45.410,-30.273,-36.621,-30.762
1789994145.060462,-34.668,-30.273,-38.086,-36.621
1789994145.064220,-29.785,-33.203,-41.992,-45.410
1789994145.067978,-38.086,-35.645,-42.480,-34.180
1789994145.073261,-41.992,-35.645,-38.086,-29.785
1789994145.077022,-32.715,-34.668,-41.016,-35.645
1789994145.080783,-26.855,-38.574,-43.457,-36.133
1789994145.084544,-30.273,-45.410,-41.016,-34.668
1789994145.088305,-36.621,-36.621,-45.410,-39.062
1789994145.092066,-36.133,-36.133,-45.898,-41.016
1789994145.095827,-25.879,-37.598,-45.410,-36.621
1789994145.099589,-29.297,-33.691,-45.898,-37.109
1789994145.103350,-38.574,-34.668,-44.922,-40.527
1789994145.107111,-34.180,-34.668,-45.898,-42.480
1789994145.110872,-21.484,-35.156,-39.062,-31.250
1789994145.114633,-19.531,-28.320,-36.133,-24.414
1789994145.119799,-31.738,-28.320,-44.434,-27.344
1789994145.123563,-40.527,-31.738,-41.992,-35.156
1789994145.127326,-31.250,-34.668,-37.109,-37.109
1789994145.131091,-21.973,-36.133,-37.109,-26.367
1789994145.134855,-38.574,-35.156,-41.016,-32.227
1789994145.138618,-53.711,-37.109,-43.945,-49.316
1789994145.142383,-43.457,-35.156,-41.016,-52.734
1789994145.146147,-22.461,-31.738,-36.621,-44.434
1789994145.149910,-26.367,-30.762,-41.504,-39.551
1789994145.153675,-44.434,-27.832,-34.668,-47.852
1789994145.157439,-41.504,-26.367,-30.762,-51.758
1789994145.161202,-31.250,-31.738,-35.645,-54.688
1789994145.167104,-35.645,-37.109,-38.574,-51.758
1789994145.170872,-43.457,-35.156,-37.598,-37.109
1789994145.174640,-40.527,-35.156,-32.715,-32.227
1789994145.178408,-31.250,-34.668,-32.227,-36.133
1789994145.182177,-27.832,-36.621,-33.203,-34.180
1789994145.185945,-41.504,-45.898,-33.691,-39.551
1789994145.189713,-49.316,-39.551,-36.621,-53.711
1789994145.193481,-40.527,-31.738,-32.715,-42.969
1789994145.197250,-25.391,-32.227,-28.320,-38.574
1789994145.201018,-26.367,-32.715,-28.809,-39.062
1789994145.204786,-44.922,-35.156,-35.645,-38.574
1789994145.208554,-41.504,-35.156,-37.598,-47.363
1789994145.214324,-26.367,-33.691,-33.691,-39.062
1789994145.218096,-33.691,-29.297,-39.551,-44.922
1789994145.221869,-42.480,-24.902,-41.504,-49.316
1789994145.225641,-42.969,-29.785,-39.551,-44.922
1789994145.229413,-38.086,-36.133,-40.039,-43.457
1789994145.233185,-32.715,-35.156,-46.875,-37.109
1789994145.236957,-28.320,-34.668,-49.805,-28.320
1789994145.240729,-31.250,-40.039,-41.992,-24.902
1789994145.244501,-44.434,-43.945,-28.809,-41.016
1789994145.248273,-35.645,-41.504,-24.414,-36.621
1789994145.252046,-36.621,-45.898,-11.230,-29.297
1789994145.255818,-47.363,-53.711,-10.742,-35.156
1789994145.261393,-32.227,-56.152,-11.719,-26.367
1789994145.265168,-10.254,-61.035,4.883,-11.230
1789994145.268944,-13.672,-62.500,13.184,-3.906
1789994145.272719,-21.484,-65.430,15.625,13.184
1789994145.276495,-13.184,-75.195,18.066,23.438
1789994145.280270,-3.418,-79.590,26.367,18.555
1789994145.284046,-3.418,-82.031,28.320,17.090
1789994145.287821,-16.602,-79.590,25.391,23.926
1789994145.291597,-13.184,-77.148,22.949,38.574
1789994145.295372,10.254,-74.219,18.555,38.574
1789994145.299148,8.301,-74.219,10.742,35.645
1789994145.302923,-16.113,-74.219,4.883,28.809
1789994145.308324,-20.508,-70.801,6.836,9.766
1789994145.312103,-7.324,-65.918,10.742,2.930
1789994145.315881,1.465,-60.059,14.160,0.488
1789994145.319660,-15.625,-54.688,6.836,-7.324
1789994145.323438,-31.738,-49.805,3.418,-8.301
1789994145.327217,-20.996,-53.223,-6.836,-17.578
1789994145.330996,-17.578,-61.523,-16.113,-25.879
1789994145.334774,-25.391,-61.035,-16.602,-19.531
1789994145.338552,-33.691,-58.594,-15.625,-20.508
1789994145.342331,-34.668,-57.129,-11.230,-21.973
1789994145.346110,-21.484,-54.688,-11.719,-14.160
1789994145.349888,-19.531,-56.641,-8.789,-5.371
1789994145.355157,-28.320,-54.688,-9.766,-3.906
1789994145.358938,-29.785,-55.664,-17.090,-10.742
1789994145.362720,-11.719,-55.664,-17.578,-5.859
1789994145.366501,-7.324,-48.340,-14.648,5.859
1789994145.370282,-28.320,-48.828,-14.648,-10.742
1789994145.374063,-30.273,-46.875,-15.625,-16.113
1789994145.377844,-18.555,-47.852,-18.555,-5.371
1789994145.381626,-7.324,-49.316,-24.414,-9.277
1789994145.385407,-14.160,-45.410,-21.484,-7.324
1789994145.389188,-27.344,-46.387,-21.973,-10.742
1789994145.392969,-20.508,-52.734,-21.973,-20.508
1789994145.396751,-6.836,-44.434,-16.113,-13.672
1789994145.401938,-6.348,-33.203,-21.484,-20.508
1789994145.405722,-20.020,-38.574,-20.020,-20.020
1789994145.409506,-20.996,-46.875,-16.113,-14.648
1789994145.413290,-12.695,-45.410,-24.902,-18.066
1789994145.417073,-14.160,-42.969,-32.227,-18.555
1789994145.420857,-24.902,-45.410,-27.832,-16.113
1789994145.424641,-27.344,-45.410,-24.902,-12.207
1789994145.428425,-18.066,-41.016,-27.344,-23.926
1789994145.432208,-10.742,-34.180,-22.461,-22.949
1789994145.435992,-17.578,-31.250,-23.926,-23.926
1789994145.439776,-16.113,-31.250,-23.926,-25.879
1789994145.443559,-14.160,-35.645,-21.973,-22.461
1789994145.448615,-16.602,-40.527,-24.414,-25.879
1789994145.452401,-24.902,-44.434,-27.344,-24.902
1789994145.456187,-46.875,-48.340,-36.621,-26.367
1789994145.459973,-41.992,-46.387,-34.180,-23.438
1789994145.463759,-21.484,-39.062,-26.367,-17.090
1789994145.467545,-34.668,-39.062,-29.297,-22.949
1789994145.471331,-49.316,-41.016,-25.879,-26.855
1789994145.475117,-50.781,-35.156,-25.391,-30.273
1789994145.478903,-44.922,-33.691,-27.344,-28.809
1789994145.482688,-36.133,-34.668,-26.855,-24.414
1789994145.486475,-49.316,-36.133,-30.273,-28.320
1789994145.490260,-55.176,-41.504,-29.785,-37.598
1789994145.495243,-34.180,-40.039,-29.297,-38.574
1789994145.499031,-24.902,-38.574,-30.273,-29.297
1789994145.502819,-36.133,-40.527,-31.738,-28.320
1789994145.506607,-45.410,-38.086,-28.809,-38.574
1789994145.510395,-35.645,-33.691,-29.297,-51.758
1789994145.514183,-20.996,-27.832,-32.715,-46.387
1789994145.517971,-29.785,-28.809,-29.297,-40.527
1789994145.521759,-38.086,-27.344,-40.039,-51.270
1789994145.525547,-32.715,-25.391,-43.457,-47.363
1789994145.529335,-27.832,-29.297,-43.945,-37.598
1789994145.533123,-28.320,-35.156,-48.340,-39.551
1789994145.536911,-39.062,-39.062,-41.504,-42.969
1789994145.542534,-37.109,-33.203,-36.621,-31.738
1789994145.546325,-17.090,-31.250,-41.504,-26.855
1789994145.550116,-23.926,-37.598,-34.668,-22.461
1789994145.553907,-43.945,-32.715,-22.461,-17.090
1789994145.557698,-43.945,-31.738,-24.902,-15.137
1789994145.561489,-31.250,-40.039,-27.832,-10.254
1789994145.565280,-28.320,-43.945,-28.809,-18.555
1789994145.569071,-35.645,-41.504,-23.926,-20.508
1789994145.572862,-43.457,-43.945,-31.738,-18.555
1789994145.576653,-35.156,-45.410,-43.457,-18.555
1789994145.580444,-23.926,-42.969,-40.527,-29.785
1789994145.584235,-30.762,-38.574,-33.691,-36.621
1789994145.589729,-43.945,-35.645,-36.621,-38.574
1789994145.593523,-43.945,-35.156,-33.203,-40.527
1789994145.597317,-28.320,-32.227,-30.762,-32.715
1789994145.601111,-25.391,-25.879,-30.762,-37.109
1789994145.604904,-39.062,-32.715,-28.809,-40.039
1789994145.608698,-47.363,-44.922,-38.574,-38.574
1789994145.612492,-43.457,-37.598,-39.551,-41.016
1789994145.616286,-40.039,-36.133,-37.109,-41.992
1789994145.620080,-52.246,-42.480,-43.457,-46.387
1789994145.623873,-58.594,-35.645,-37.109,-45.410
1789994145.627667,-42.969,-27.832,-27.832,-30.762
1789994145.631461,-22.949,-23.926,-29.785,-19.531
1789994145.636798,-27.832,-26.855,-30.762,-29.785
1789994145.640595,-41.016,-26.367,-27.344,-24.414
1789994145.644391,-32.715,-17.578,-25.879,-14.160
1789994145.648187,-28.809,-21.973,-33.203,-28.320
1789994145.651983,-37.598,-26.855,-33.203,-31.738
1789994145.655780,-47.363,-25.391,-26.855,-24.414
1789994145.659576,-32.227,-32.227,-25.879,-13.184
1789994145.663372,-8.789,-31.250,-28.320,-7.324
1789994145.667169,-27.832,-19.043,-29.297,-26.367
1789994145.670965,-60.059,-24.902,-33.691,-51.270
1789994145.674761,-65.918,-30.762,-43.945,-64.941
1789994145.678558,-60.547,-21.484,-57.129,-65.918
1789994145.683780,-62.012,-19.531,-60.059,-75.195
1789994145.687579,-77.637,-28.320,-57.129,-85.449
1789994145.691377,-92.285,-24.414,-57.617,-93.750
1789994145.695176,-89.844,-15.625,-68.359,-105.957
1789994145.698974,-83.496,-10.742,-79.590,-113.281
1789994145.702773,-92.773,-7.812,-80.566,-120.605
1789994145.706571,-104.492,-10.742,-78.613,-121.094
1789994145.710370,-106.445,-4.883,-88.379,-120.605
1789994145.714169,-94.727,-2.930,-99.609,-125.000
1789994145.717967,-93.750,-5.371,-99.609,-126.953
1789994145.721766,-102.051,-5.371,-97.656,-131.348
1789994145.725564,-87.891,-4.883,-89.844,-127.930
1789994145.730657,-69.336,-4.395,-84.473,-117.188
1789994145.734457,-69.336,-7.324,-81.543,-109.375
1789994145.738258,-83.496,-12.695,-72.754,-94.727
1789994145.742058,-76.660,-19.531,-70.312,-92.773
1789994145.745859,-55.176,-14.648,-84.473,-87.402
1789994145.749659,-54.199,-9.277,-85.938,-74.707
1789994145.753460,-65.430,-8.789,-74.219,-73.730
1789994145.757261,-66.406,-6.836,-72.266,-68.359
1789994145.761061,-54.199,-11.230,-63.965,-62.988
1789994145.764862,-43.945,-12.695,-50.781,-62.012
1789994145.768662,-47.363,-12.695,-54.688,-58.594
1789994145.772463,-55.664,-17.090,-58.105,-57.129
1789994145.777482,-49.805,-18.066,-54.688,-53.711
1789994145.781284,-44.922,-21.484,-64.453,-58.105
1789994145.785086,-53.711,-27.832,-61.035,-69.336
1789994145.788889,-61.035,-26.367,-49.805,-59.570
1789994145.792691,-50.781,-26.367,-59.082,-56.152
1789994145.796494,-34.668,-25.391,-59.082,-57.129
1789994145.800296,-29.785,-19.531,-47.852,-45.410
1789994145.804098,-41.992,-28.320,-49.805,-47.363
1789994145.807901,-44.434,-34.180,-53.711,-48.340
1789994145.811703,-31.250,-30.762,-55.664,-43.945
1789994145.815505,-22.949,-29.785,-54.199,-42.480
1789994145.819308,-30.273,-28.809,-49.805,-43.945
1789994145.824192,-41.504,-29.785,-54.199,-46.875
1789994145.827996,-30.273,-26.367,-50.781,-33.203
1789994145.831800,-21.973,-26.367,-49.316,-36.621
1789994145.835604,-35.645,-33.691,-59.570,-48.340
1789994145.839408,-40.039,-27.832,-61.523,-41.016
1789994145.843212,-37.598,-29.785,-56.152,-45.410
1789994145.847016,-31.738,-38.574,-51.758,-44.434
1789994145.850820,-21.973,-35.156,-47.363,-31.250
1789994145.854624,-24.902,-32.227,-47.363,-35.156
1789994145.858428,-26.855,-30.762,-45.410,-35.156
1789994145.862232,-20.020,-33.203,-44.434,-25.391
1789994145.866036,-18.066,-30.762,-40.527,-24.414
1789994145.870854,-33.203,-27.832,-38.086,-44.434
1789994145.874659,-53.711,-36.133,-41.992,-53.223
1789994145.878465,-50.781,-33.691,-39.551,-48.828
1789994145.882270,-38.086,-32.227,-40.527,-46.387
1789994145.886075,-39.551,-41.992,-43.457,-40.039
1789994145.889881,-51.270,-39.551,-43.457,-33.691
1789994145.893687,-47.363,-34.180,-44.922,-41.016
1789994145.897492,-24.902,-29.297,-38.574,-42.480
1789994145.901298,-24.902,-24.414,-40.039,-39.551
1789994145.905103,-44.434,-26.855,-56.641,-39.551
1789994145.908908,-39.551,-26.367,-56.152,-41.504
1789994145.912714,-5.859,-22.949,-36.621,-22.461
1789994145.918090,-3.906,-20.996,-23.926,-10.254
1789994145.921897,-39.062,-24.414,-19.043,-37.109
1789994145.925705,-47.852,-28.809,-23.438,-40.039
1789994145.929513,-26.367,-28.320,-22.461,-23.926
1789994145.933321,-15.625,-26.367,-23.438,-25.391
1789994145.937128,-25.879,-28.809,-29.297,-32.715
1789994145.940936,-32.227,-30.762,-29.785,-30.273
1789994145.944744,-28.320,-35.156,-35.645,-35.645
1789994145.948551,-20.996,-46.875,-35.156,-40.527
1789994145.952359,-31.738,-42.480,-24.902,-31.250
1789994145.956167,-45.898,-34.668,-22.949,-34.180
1789994145.959975,-35.645,-35.156,-26.367,-35.645
1789994145.965206,-29.297,-37.109,-36.133,-44.922
1789994145.969016,-39.062,-38.574,-40.039,-54.199
1789994145.972826,-55.176,-33.203,-34.180,-49.316
1789994145.976635,-54.688,-31.250,-28.809,-47.363
1789994145.980445,-35.645,-31.738,-33.203,-44.922
1789994145.984255,-32.715,-30.273,-34.180,-45.898
1789994145.988065,-39.062,-25.879,-23.926,-41.504
1789994145.991874,-45.898,-28.320,-21.484,-42.480
1789994145.995684,-41.016,-43.457,-26.855,-41.992
1789994145.999494,-31.250,-46.875,-26.855,-39.551
1789994146.003303,-39.551,-43.945,-21.484,-49.316
1789994146.007113,-47.363,-41.992,-23.438,-42.480
1789994146.012262,-35.645,-33.203,-32.715,-40.039
1789994146.016074,-20.508,-27.832,-28.809,-46.875
1789994146.019886,-25.879,-29.785,-28.809,-42.969
1789994146.023697,-39.062,-34.180,-37.598,-43.457
1789994146.027509,-41.504,-35.645,-28.320,-55.664
1789994146.031320,-34.180,-37.598,-29.785,-44.434
1789994146.035132,-33.203,-39.062,-34.180,-35.645
1789994146.038944,-46.387,-36.621,-29.785,-47.363
1789994146.042755,-53.711,-37.598,-28.809,-46.875
1789994146.046567,-40.527,-37.598,-28.809,-48.340
1789994146.050378,-31.738,-35.645,-33.203,-48.828
1789994146.054190,-41.016,-32.227,-30.273,-48.340
1789994146.059325,-54.688,-32.715,-27.832,-56.152
1789994146.063138,-45.898,-31.738,-26.855,-53.711
1789994146.066951,-41.016,-34.668,-26.367,-61.523
1789994146.070765,-47.363,-34.668,-28.809,-69.824
1789994146.074578,-53.711,-39.062,-39.551,-60.547
1789994146.078392,-46.387,-42.969,-39.062,-50.293
1789994146.082205,-28.809,-36.133,-27.344,-43.945
1789994146.086018,-34.668,-35.156,-33.691,-48.828
1789994146.089832,-49.316,-33.691,-35.156,-46.875
1789994146.093645,-47.363,-33.203,-30.273,-47.852
1789994146.097459,-33.691,-40.039,-29.785,-51.758
1789994146.101272,-34.180,-42.969,-37.598,-45.898
1789994146.106202,-43.457,-38.086,-35.645,-44.922
1789994146.110017,-47.852,-34.668,-30.762,-48.340
1789994146.113832,-45.410,-31.250,-41.016,-43.945
1789994146.117647,-36.133,-31.738,-39.062,-40.039
1789994146.121462,-38.574,-40.039,-32.715,-42.969
1789994146.125277,-54.199,-41.992,-35.156,-45.898
1789994146.129092,-44.922,-42.969,-41.504,-33.691
1789994146.132906,-29.785,-42.480,-39.062,-26.367
1789994146.136721,-36.621,-32.227,-34.180,-42.969
1789994146.140536,-48.340,-33.203,-39.062,-49.316
1789994146.144351,-36.133,-40.039,-44.434,-39.551
1789994146.148166,-15.625,-33.203,-40.527,-34.668
1789994146.152981,-27.344,-34.668,-39.551,-41.992
1789994146.156797,-47.363,-33.691,-42.480,-46.387
1789994146.160614,-40.039,-29.785,-36.621,-44.922
1789994146.164430,-26.855,-32.227,-30.762,-41.992
1789994146.168246,-28.320,-29.297,-29.785,-39.551
1789994146.172062,-39.062,-27.832,-30.762,-44.434
1789994146.175879,-44.434,-35.156,-31.250,-41.504
1789994146.179695,-33.691,-37.109,-29.785,-38.574
1789994146.183511,-18.066,-27.832,-28.809,-36.133
1789994146.187327,-19.531,-21.973,-27.832,-29.297
1789994146.191144,-28.809,-22.949,-30.273,-37.598
1789994146.194960,-24.902,-24.414,-28.809,-47.363
1789994146.199704,-14.160,-28.809,-26.855,-52.734
1789994146.203522,-16.113,-37.109,-24.902,-46.875
1789994146.207339,-21.484,-29.785,-27.832,-40.527
1789994146.211157,-22.461,-25.391,-31.738,-39.551
1789994146.214974,-25.391,-27.832,-32.715,-43.457
1789994146.218791,-34.668,-32.227,-35.645,-56.641
1789994146.222609,-35.645,-36.133,-35.156,-48.828
1789994146.226426,-28.809,-29.297,-30.762,-39.551
1789994146.230244,-20.996,-23.926,-24.902,-36.621
1789994146.234061,-13.672,-26.855,-23.438,-31.250
1789994146.237879,-23.438,-30.273,-30.273,-34.668
1789994146.241696,-34.180,-31.250,-37.598,-32.715
1789994146.246383,-23.926,-31.738,-33.203,-30.762
1789994146.250201,-12.207,-27.344,-26.855,-35.156
1789994146.254020,-25.879,-30.273,-24.902,-37.109
1789994146.257839,-44.434,-35.645,-20.508,-34.668
1789994146.261657,-34.668,-39.551,-26.855,-36.133
1789994146.265476,-18.555,-39.551,-37.109,-31.738
1789994146.269294,-27.832,-33.203,-34.180,-30.762
1789994146.273113,-45.410,-31.738,-26.855,-46.387
1789994146.276931,-44.922,-33.691,-31.738,-49.316
1789994146.280750,-27.344,-28.320,-33.691,-30.273
1789994146.284569,-27.344,-26.855,-31.738,-28.320
1789994146.288387,-35.156,-34.180,-32.227,-35.156
1789994146.293577,-35.156,-36.621,-27.832,-27.832
1789994146.297397,-25.391,-34.668,-28.320,-19.043
1789994146.301217,-22.949,-33.203,-35.156,-22.461
1789994146.305037,-37.109,-35.156,-37.598,-29.297
1789994146.308858,-46.387,-35.156,-27.344,-26.855
1789994146.312678,-36.621,-29.785,-25.879,-28.809
1789994146.316498,-30.762,-28.320,-32.227,-36.621
1789994146.320319,-41.016,-27.344,-32.715,-43.457
1789994146.324139,-50.293,-24.902,-31.250,-47.852
1789994146.327959,-43.457,-31.738,-31.738,-42.480
1789994146.331779,-31.250,-32.715,-31.250,-35.645
1789994146.335600,-38.086,-28.809,-35.645,-40.527
1789994146.340699,-51.270,-36.621,-34.180,-52.246
1789994146.344521,-51.758,-36.621,-33.691,-48.828
1789994146.348342,-39.551,-30.762,-37.109,-41.992
1789994146.352164,-30.762,-27.344,-30.762,-39.062
1789994146.355986,-41.016,-29.297,-30.762,-32.715
1789994146.359808,-48.340,-34.180,-37.598,-36.621
1789994146.363630,-35.156,-36.621,-43.457,-39.062
1789994146.367452,-30.273,-40.039,-41.992,-39.551
1789994146.371274,-41.992,-39.062,-38.574,-40.527
1789994146.375096,-44.922,-31.738,-32.227,-37.109
1789994146.378917,-37.109,-26.855,-21.973,-34.180
1789994146.382739,-32.227,-28.320,-25.391,-30.273
1789994146.387716,-40.039,-28.320,-31.738,-42.480
1789994146.391539,-47.363,-26.367,-24.902,-44.922
1789994146.395362,-37.598,-25.879,-23.438,-35.645
1789994146.399185,-30.762,-27.832,-27.832,-41.504
1789994146.403009,-36.621,-33.691,-26.367,-43.945
1789994146.406832,-49.805,-37.109,-31.250,-42.480
1789994146.410655,-55.176,-37.598,-36.621,-37.598
1789994146.414479,-39.551,-35.156,-30.273,-32.715
1789994146.418302,-33.203,-28.809,-27.344,-33.691
1789994146.422125,-47.363,-28.320,-30.762,-39.062
1789994146.425948,-53.223,-32.227,-37.109,-49.805
1789994146.429772,-48.828,-34.180,-37.598,-60.547
1789994146.434661,-38.574,-35.156,-32.715,-52.734
1789994146.438486,-44.434,-36.621,-29.297,-44.922
1789994146.442311,-61.035,-41.016,-29.785,-43.457
1789994146.446135,-47.852,-36.133,-27.344,-35.156
1789994146.449960,-30.273,-35.156,-24.902,-35.645
1789994146.453784,-41.504,-39.551,-23.926,-39.551
1789994146.457609,-59.570,-36.621,-32.715,-45.410
1789994146.461433,-47.852,-34.668,-44.434,-37.109
1789994146.465258,-38.574,-39.062,-39.062,-36.621
1789994146.469083,-45.410,-46.387,-31.738,-48.340
1789994146.472907,-50.781,-39.062,-33.203,-46.875
1789994146.476732,-49.805,-32.227,-32.227,-50.293
1789994146.481560,-41.016,-36.621,-31.738,-48.340
1789994146.485385,-36.621,-38.574,-31.250,-46.875
1789994146.489211,-40.039,-37.109,-35.645,-55.176
1789994146.493037,-21.484,-33.203,-39.062,-34.180
1789994146.496862,-6.348,-31.250,-26.855,-11.719
1789994146.500688,-27.344,-38.086,-22.461,-29.297
1789994146.504514,-52.246,-44.922,-25.879,-44.922
1789994146.508340,-67.383,-50.293,-10.254,-36.621
1789994146.512166,-61.523,-52.734,-1.953,-33.203
1789994146.515991,-49.805,-51.270,-3.418,-37.109
1789994146.519817,-58.594,-59.082,8.789,-39.551
1789994146.523643,-72.754,-66.895,13.184,-44.434
1789994146.528393,-73.242,-62.988,17.090,-43.457
1789994146.532219,-62.988,-69.336,27.832,-31.738
1789994146.536046,-68.359,-74.219,27.832,-26.855
1789994146.539873,-84.961,-74.707,31.738,-25.879
1789994146.543700,-79.590,-75.684,28.809,-18.555
1789994146.547527,-57.129,-74.707,23.926,-16.602
1789994146.551354,-44.922,-73.242,23.438,-11.230
1789994146.555181,-50.293,-68.848,19.531,-9.277
1789994146.559007,-52.734,-64.453,15.137,-17.578
1789994146.562834,-41.992,-66.895,6.348,-13.672
1789994146.566661,-28.809,-65.918,9.766,-2.441
1789994146.570488,-27.832,-59.570,15.137,-1.465
1789994146.575128,-32.715,-57.129,13.672,-11.719
1789994146.578956,-19.531,-59.082,10.742,-9.766
1789994146.582784,-0.977,-65.918,6.836,0.977
1789994146.586612,-9.766,-58.594,4.395,0.488
1789994146.590440,-17.578,-45.410,0.000,-7.324
1789994146.594267,-16.113,-44.922,2.441,-8.301
1789994146.598095,-16.113,-51.758,3.418,4.883
1789994146.601923,-14.648,-50.293,6.348,8.789
1789994146.605751,-25.879,-52.246,1.953,-9.277
1789994146.609579,-39.062,-53.711,-10.742,-13.184
1789994146.613406,-29.785,-48.828,-8.301,-0.488
1789994146.617234,-15.137,-48.828,-1.953,3.906
1789994146.621806,-19.531,-46.387,-14.160,0.977
1789994146.625635,-29.297,-38.574,-15.137,-10.742
1789994146.629463,-18.555,-37.109,-9.277,-9.277
1789994146.633292,-1.465,-40.039,-8.301,7.324
1789994146.637120,-13.672,-41.504,-6.836,-1.953
1789994146.640949,-34.180,-47.363,-16.113,-17.578
1789994146.644778,-30.273,-48.340,-18.066,-13.184
1789994146.648606,-16.113,-50.293,-17.578,-11.230
1789994146.652435,-22.949,-45.410,-25.391,-10.742
1789994146.656264,-38.574,-40.527,-25.879,-16.602
1789994146.660092,-33.203,-35.156,-20.996,-11.719
1789994146.663921,-19.531,-36.621,-28.809,-7.324
1789994146.668966,-17.090,-41.016,-26.367,-11.230
1789994146.672796,-20.020,-37.109,-23.926,-14.648
1789994146.676626,-24.414,-30.762,-27.832,-25.391
1789994146.680456,-15.625,-29.297,-25.391,-20.020
1789994146.684286,-9.766,-30.762,-20.508,-10.254
1789994146.688116,-26.367,-32.715,-24.414,-13.184
1789994146.691946,-34.668,-28.809,-30.762,-16.602
1789994146.695776,-37.598,-28.809,-28.320,-22.461
1789994146.699606,-33.691,-34.668,-23.926,-28.320
1789994146.703436,-39.062,-33.691,-27.344,-33.203
1789994146.707266,-57.129,-34.668,-25.391,-33.691
1789994146.711096,-57.129,-37.598,-26.855,-38.574
1789994146.716046,-45.410,-34.180,-33.203,-41.016
1789994146.719878,-45.898,-39.062,-33.691,-39.551
1789994146.723709,-58.594,-41.992,-37.598,-47.363
1789994146.727540,-50.293,-39.551,-29.785,-43.457
1789994146.731371,-27.832,-36.621,-20.508,-27.832
1789994146.735203,-22.461,-31.250,-20.508,-27.832
1789994146.739034,-34.180,-28.320,-24.414,-35.645
1789994146.742865,-49.316,-30.273,-23.438,-42.480
1789994146.746696,-41.016,-34.668,-22.461,-32.227
1789994146.750528,-25.391,-38.574,-27.832,-29.297
1789994146.754359,-34.668,-38.086,-26.367,-41.016
1789994146.758190,-45.410,-35.645,-25.879,-35.645
1789994146.763060,-34.180,-35.645,-20.508,-21.973
1789994146.766893,-19.043,-40.039,-17.090,-22.949
1789994146.770725,-19.531,-40.527,-24.414,-27.344
1789994146.774558,-28.320,-39.062,-29.785,-26.855
1789994146.778390,-31.250,-38.086,-33.691,-32.715
1789994146.782222,-23.926,-31.738,-31.738,-36.133
1789994146.786055,-29.297,-34.180,-28.320,-35.645
1789994146.789887,-46.875,-32.715,-23.926,-35.156
1789994146.793720,-54.199,-33.691,-20.996,-34.180
1789994146.797552,-37.109,-47.852,-29.297,-20.508
1789994146.801384,-8.789,-45.410,-31.738,0.977
1789994146.805217,-28.809,-29.297,-31.738,-13.672
1789994146.809989,-56.641,-23.926,-45.410,-42.480
1789994146.813823,-40.039,-24.902,-55.176,-48.828
1789994146.817656,-20.508,-17.578,-60.059,-52.246
1789994146.821489,-21.484,-5.859,-70.801,-60.547
1789994146.825323,-35.645,0.488,-77.148,-66.895
1789994146.829156,-32.227,4.883,-86.426,-68.359
1789994146.832989,-25.879,4.395,-91.797,-70.312
1789994146.836823,-22.949,8.301,-99.121,-69.824
1789994146.840656,-25.391,17.578,-108.887,-62.500
1789994146.844490,-29.297,12.207,-106.445,-73.730
1789994146.848323,-11.719,5.859,-112.305,-81.055
1789994146.852157,0.000,13.672,-115.723,-75.684
1789994146.856861,-11.230,12.695,-119.629,-62.012
1789994146.860696,-14.160,6.348,-118.652,-61.035
1789994146.864530,-2.441,9.277,-115.234,-70.312
1789994146.868364,-3.418,9.277,-109.863,-69.336
1789994146.872199,-21.484,1.465,-102.539,-72.266
1789994146.876033,-21.484,2.930,-104.492,-71.289
1789994146.879867,-6.836,2.930,-96.680,-62.988
1789994146.883702,2.441,-2.930,-87.402,-49.805
1789994146.887536,-8.789,-3.418,-85.938,-45.410
1789994146.891370,-32.715,-12.695,-80.078,-59.570
1789994146.895205,-33.203,-19.531,-79.590,-59.570
1789994146.899039,-19.531,-12.695,-80.078,-45.898
1789994146.903691,-16.113,-3.906,-68.848,-41.504
1789994146.907526,-22.461,-1.953,-65.918,-41.992
1789994146.911361,-27.344,-14.648,-69.824,-41.016
1789994146.915197,-19.043,-20.996,-66.406,-42.969
1789994146.919032,-13.184,-20.508,-72.266,-44.434
1789994146.922867,-27.344,-20.508,-70.312,-51.758
1789994146.926702,-32.227,-19.531,-56.641,-46.387
1789994146.930537,-16.602,-18.066,-53.223,-26.855
1789994146.934373,-4.883,-13.184,-48.340,-30.273
1789994146.938208,-14.648,-10.254,-45.410,-42.969
1789994146.942043,-27.344,-15.137,-49.316,-50.781
1789994146.945878,-14.648,-17.090,-48.340,-37.598
1789994146.950432,5.859,-14.160,-43.945,-23.926
1789994146.954268,-7.324,-16.113,-50.781,-39.551
1789994146.958104,-25.391,-17.578,-56.152,-45.898
1789994146.961940,-20.508,-20.020,-59.082,-42.969
1789994146.965775,-10.254,-22.949,-57.617,-44.922
1789994146.969611,-12.695,-20.508,-53.711,-51.758
1789994146.973448,-25.391,-18.555,-57.129,-51.270
1789994146.977283,-32.715,-20.020,-57.129,-46.387
1789994146.981119,-19.043,-17.578,-50.781,-36.621
1789994146.984955,-14.160,-19.531,-48.340,-35.645
1789994146.988791,-28.320,-27.344,-48.340,-39.551
1789994146.992627,-27.832,-25.879,-46.387,-33.203
1789994146.997134,-12.207,-29.297,-41.504,-25.879
1789994147.000971,-2.441,-36.133,-37.109,-8.789
1789994147.004808,-24.414,-35.156,-39.062,-18.555
1789994147.008644,-43.457,-22.461,-44.434,-37.109
1789994147.012481,-26.855,-14.648,-47.363,-33.691
1789994147.016318,0.977,-17.090,-51.758,-11.719
1789994147.020154,13.672,-14.160,-53.223,6.348
1789994147.023991,4.883,-8.301,-57.617,-4.395
1789994147.027828,16.602,-7.812,-57.129,-6.348
1789994147.031664,36.621,-13.184,-48.828,8.789
1789994147.035501,38.086,-13.184,-49.805,25.391
1789994147.039337,21.973,-15.137,-51.270,19.531
1789994147.044278,9.277,-17.578,-50.293,6.348
1789994147.048116,13.672,-9.766,-51.758,6.836
1789994147.051954,16.113,-3.906,-44.922,1.953
1789994147.055792,4.883,-11.719,-44.434,-12.695
1789994147.059629,-2.441,-20.020,-54.688,-22.949
1789994147.063467,1.953,-17.578,-46.387,-14.648
1789994147.067305,1.953,-15.137,-40.039,-22.461
1789994147.071143,-10.254,-18.066,-42.969,-32.227
1789994147.074980,-22.949,-26.367,-43.457,-31.250
1789994147.078818,-17.090,-26.367,-41.016,-29.785
1789994147.082656,-6.348,-22.949,-38.574,-34.668
1789994147.086494,-6.836,-20.508,-37.109,-34.668
1789994147.091331,-17.090,-16.113,-37.598,-17.090
1789994147.095169,-21.484,-16.113,-39.062,-12.695
1789994147.099008,-13.672,-19.043,-37.598,-14.648
1789994147.102847,-3.906,-19.531,-38.574,-5.371
1789994147.106686,-15.137,-23.926,-42.480,-12.695
1789994147.110524,-24.902,-32.227,-37.109,-22.949
1789994147.114363,-12.695,-24.902,-30.762,-3.418
1789994147.118202,-3.418,-16.113,-31.250,2.930
1789994147.122041,-12.207,-16.602,-24.902,1.953
1789994147.125880,-24.414,-19.043,-26.367,-1.953
1789994147.129718,-15.137,-18.555,-30.762,-14.160
1789994147.133557,-3.906,-17.090,-33.691,-8.789
1789994147.138328,-6.348,-20.996,-32.715,-7.812
1789994147.142168,-13.672,-28.809,-31.250,-18.066
1789994147.146008,-18.066,-29.785,-34.180,-25.391
1789994147.149848,-12.207,-22.461,-35.645,-22.949
1789994147.153687,-6.836,-19.043,-31.738,-21.484
1789994147.157527,-13.672,-21.973,-27.832,-19.043
1789994147.161366,-18.555,-17.578,-30.273,-23.438
1789994147.165206,-13.672,-16.602,-36.133,-27.832
1789994147.169046,-8.301,-24.902,-36.621,-30.273
1789994147.172886,-21.973,-24.902,-39.551,-37.109
1789994147.176725,-33.691,-22.949,-39.062,-41.992
1789994147.180565,-21.484,-20.996,-34.668,-40.527
1789994147.185267,-13.184,-18.555,-40.039,-39.062
1789994147.189107,-29.297,-20.020,-38.086,-45.898
1789994147.192948,-43.945,-20.508,-35.645,-51.758
1789994147.196789,-28.809,-22.461,-35.645,-41.016
1789994147.200629,-2.441,-26.855,-34.668,-27.832
1789994147.204470,-14.160,-33.691,-35.156,-40.527
1789994147.208310,-49.805,-34.668,-28.809,-57.617
1789994147.212151,-50.293,-29.785,-20.996,-43.945
1789994147.215991,-29.785,-34.180,-17.090,-32.227
1789994147.219832,-35.645,-41.504,-21.973,-40.039
1789994147.223672,-55.176,-42.969,-30.273,-45.898
1789994147.227513,-60.059,-41.992,-25.879,-49.805
1789994147.232146,-38.086,-41.016,-20.508,-42.969
1789994147.235987,-23.926,-40.039,-20.996,-44.922
1789994147.239828,-38.086,-38.574,-19.043,-49.805
1789994147.243670,-47.852,-39.062,-22.461,-50.781
1789994147.247511,-37.109,-41.504,-27.832,-43.457
1789994147.251352,-20.020,-40.039,-26.855,-30.273
1789994147.255193,-33.203,-43.945,-22.461,-40.039
1789994147.259035,-49.316,-45.898,-17.090,-43.945
1789994147.262876,-43.945,-37.598,-19.043,-40.527
1789994147.266717,-36.621,-33.691,-24.414,-36.621
1789994147.270559,-37.598,-35.156,-23.926,-28.320
1789994147.274400,-50.293,-37.109,-23.438,-41.992
1789994147.278970,-56.641,-42.480,-23.926,-44.434
1789994147.282812,-41.992,-38.574,-24.414,-31.738
1789994147.286654,-32.715,-32.715,-26.855,-35.156
1789994147.290496,-45.898,-35.645,-30.273,-38.086
1789994147.294338,-45.898,-32.227,-24.414,-33.203
1789994147.298180,-35.156,-27.832,-18.555,-30.273
1789994147.302022,-23.926,-27.344,-22.949,-18.066
1789994147.305864,-30.273,-31.250,-22.461,-22.949
1789994147.309706,-42.969,-35.156,-22.461,-30.273
1789994147.313548,-32.227,-35.156,-31.250,-18.066
1789994147.317390,-28.320,-35.645,-33.203,-22.461
1789994147.321232,-40.039,-33.691,-30.762,-29.297
1789994147.325747,-47.852,-33.203,-30.273,-30.273
1789994147.329590,-38.574,-33.691,-34.180,-31.738
1789994147.333433,-24.414,-39.551,-37.598,-38.086
1789994147.337276,-26.367,-39.551,-38.086,-42.969
1789994147.341118,-37.109,-31.738,-38.086,-32.715
1789994147.344961,-42.969,-33.203,-33.691,-24.902
1789994147.348803,-40.039,-39.551,-33.691,-26.367
1789994147.352646,-38.574,-42.480,-39.062,-30.762
1789994147.356489,-45.898,-39.062,-34.668,-36.621
1789994147.360331,-49.316,-40.527,-29.297,-39.062
1789994147.364174,-38.574,-42.969,-34.180,-34.668
1789994147.368016,-26.367,-43.945,-35.645,-27.344
1789994147.372469,-27.832,-48.340,-34.668,-13.672
1789994147.376313,-19.531,-46.875,-29.785,8.789
1789994147.380156,-22.949,-32.715,-27.832,-16.602
1789994147.383999,-28.320,-19.043,-28.809,-46.387
1789994147.387842,-30.273,-25.879,-31.250,-44.434
1789994147.391686,-65.430,-32.715,-35.156,-60.547
1789994147.395529,-75.684,-27.832,-40.039,-70.801
1789994147.399372,-63.965,-14.648,-43.457,-75.195
1789994147.403215,-81.055,-15.625,-54.688,-90.332
1789994147.407058,-98.145,-25.391,-59.082,-99.609
1789994147.410902,-95.215,-21.484,-51.758,-97.168
1789994147.414745,-79.102,-19.043,-50.293,-98.633
1789994147.419578,-66.406,-20.020,-46.875,-99.121
1789994147.423422,-82.520,-19.531,-48.340,-105.469
1789994147.427267,-93.262,-25.879,-49.805,-97.168
1789994147.431111,-73.730,-25.879,-52.246,-83.008
1789994147.434955,-66.406,-22.949,-56.641,-87.891
1789994147.438799,-70.801,-21.484,-50.781,-83.496
1789994147.442643,-67.871,-21.973,-54.688,-71.777
1789994147.446487,-64.941,-18.555,-54.199,-63.965
1789994147.450331,-49.805,-24.414,-43.457,-48.828
1789994147.454175,-43.945,-37.598,-41.992,-45.898
1789994147.458019,-53.223,-35.156,-43.457,-55.176
1789994147.461864,-57.129,-30.273,-48.828,-58.105
1789994147.466615,-38.086,-23.438,-41.504,-43.457
1789994147.470460,-26.855,-14.648,-31.250,-42.969
1789994147.474305,-46.875,-24.902,-36.621,-50.781
1789994147.478150,-51.270,-35.645,-42.969,-52.246
1789994147.481995,-37.109,-33.203,-37.109,-54.688
1789994147.485840,-35.645,-34.180,-32.715,-41.016
1789994147.489685,-47.852,-33.691,-38.086,-43.945
1789994147.493530,-56.641,-31.250,-41.504,-65.918
1789994147.497375,-46.387,-31.738,-37.598,-61.035
1789994147.501220,-40.039,-32.227,-32.715,-49.805
1789994147.505065,-50.293,-37.109,-32.227,-50.293
1789994147.508910,-58.594,-31.738,-36.133,-46.875
1789994147.513614,-58.594,-29.785,-38.086,-48.828
1789994147.517460,-46.387,-33.203,-41.016,-40.527
1789994147.521306,-37.598,-33.691,-47.852,-41.016
1789994147.525152,-48.340,-35.645,-45.410,-47.852
1789994147.528997,-48.828,-36.133,-38.086,-47.363
1789994147.532843,-36.133,-32.227,-37.598,-47.363
1789994147.536689,-26.855,-29.785,-41.992,-44.922
1789994147.540534,-36.133,-31.738,-41.504,-37.598
1789994147.544380,-39.062,-28.809,-32.227,-32.227
1789994147.548226,-32.715,-23.926,-29.785,-38.086
1789994147.552072,-24.902,-27.832,-37.109,-35.645
1789994147.555918,-26.855,-25.879,-35.156,-41.504
1789994147.560581,-46.875,-25.879,-33.691,-54.199
1789994147.564427,-48.340,-34.668,-36.621,-41.992
1789994147.568274,-30.273,-37.598,-31.250,-29.785
1789994147.572120,-39.062,-41.016,-37.598,-42.480
1789994147.575967,-54.199,-33.203,-40.039,-53.223
1789994147.579813,-46.387,-29.785,-34.180,-45.410
1789994147.583659,-32.715,-33.203,-34.668,-40.039
1789994147.587506,-27.344,-28.320,-39.062,-31.250
1789994147.591352,-42.480,-28.809,-45.410,-36.133
1789994147.595199,-46.875,-31.250,-42.480,-50.293
1789994147.599046,-33.203,-26.367,-31.250,-43.457
1789994147.602892,-24.414,-25.391,-26.367,-33.203
1789994147.607476,-25.879,-31.738,-34.180,-26.367
1789994147.611324,-36.621,-35.645,-36.621,-36.133
1789994147.615171,-40.527,-30.273,-33.691,-59.570
1789994147.619018,-34.180,-24.902,-35.156,-68.848
1789994147.622865,-41.016,-29.785,-34.180,-57.129
1789994147.626712,-59.082,-27.344,-30.762,-57.129
1789994147.630559,-64.453,-24.414,-29.785,-70.801
1789994147.634407,-53.711,-30.762,-34.668,-64.453
1789994147.638254,-50.781,-29.297,-40.527,-64.941
1789994147.642101,-59.082,-26.367,-38.086,-67.871
1789994147.645948,-57.129,-22.949,-32.227,-59.570
1789994147.649795,-42.969,-26.367,-35.156,-46.875
1789994147.654286,-40.527,-38.574,-33.691,-41.992
1789994147.658133,-47.363,-35.645,-33.691,-51.270
1789994147.661981,-55.664,-32.715,-38.574,-45.898
1789994147.665829,-40.527,-34.668,-34.668,-40.527
1789994147.669676,-35.156,-35.645,-28.809,-41.992
1789994147.673524,-50.781,-38.086,-25.391,-48.340
1789994147.677372,-52.246,-39.551,-21.484,-42.969
1789994147.681220,-40.039,-41.016,-27.832,-33.203
1789994147.685067,-23.926,-41.992,-34.180,-43.457
1789994147.688915,-36.621,-40.527,-33.203,-48.340
1789994147.692763,-53.223,-40.039,-37.109,-49.316
1789994147.696610,-42.480,-37.109,-42.480,-45.898
1789994147.701058,-24.414,-29.297,-42.480,-45.898
1789994147.704906,-16.113,-25.879,-34.668,-42.969
1789994147.708755,-31.738,-25.879,-30.273,-38.574
1789994147.712603,-41.016,-27.344,-35.156,-46.875
1789994147.716451,-25.879,-31.250,-34.668,-44.922
1789994147.720299,-21.973,-32.715,-30.762,-35.645
1789994147.724148,-39.551,-33.203,-33.691,-40.039
1789994147.727996,-48.340,-33.691,-29.785,-40.039
1789994147.731844,-39.062,-28.809,-28.320,-50.293
1789994147.735692,-36.621,-28.320,-36.133,-59.570
1789994147.739540,-46.387,-32.227,-37.598,-54.199
1789994147.743389,-53.711,-31.250,-34.668,-44.922
1789994147.747782,-42.480,-28.809,-35.156,-34.668
1789994147.751631,-29.297,-29.297,-40.039,-30.273
1789994147.755480,-27.344,-34.180,-39.551,-23.926
1789994147.759328,-11.230,-39.062,-34.180,-7.324
1789994147.763177,-14.648,-40.039,-23.926,-16.113
1789994147.767026,-30.762,-37.109,-13.184,-38.086
1789994147.770875,-33.691,-45.410,-8.301,-26.855
1789994147.774723,-49.316,-58.594,-12.207,-42.969
1789994147.778572,-59.570,-58.105,-6.836,-68.848
1789994147.782420,-40.527,-62.012,2.930,-52.734
1789994147.786269,-25.391,-67.383,11.719,-24.414
1789994147.790118,-33.691,-70.801,23.926,-14.648
1789994147.794933,-35.645,-70.312,34.180,-12.695
1789994147.798783,-32.227,-77.148,42.480,-1.465
1789994147.802632,-28.809,-83.984,49.316,4.395
1789994147.806482,-30.762,-79.102,56.641,10.742
1789994147.810331,-39.062,-87.891,62.500,16.113
1789994147.814181,-30.273,-92.773,60.059,22.461
1789994147.818030,-16.113,-83.984,66.895,29.297
1789994147.821880,-20.508,-86.426,70.312,29.297
1789994147.825729,-25.391,-95.215,65.430,31.250
1789994147.829579,-21.973,-91.797,66.406,35.645
1789994147.833428,-4.395,-85.938,56.641,45.410
1789994147.837278,-4.395,-87.402,45.410,41.016
1789994147.841972,-20.996,-84.961,46.875,29.785
1789994147.845822,-21.484,-78.125,39.551,23.926
1789994147.849672,-8.301,-75.684,31.250,27.832
1789994147.853523,-1.953,-77.637,30.273,36.133
1789994147.857373,-19.531,-78.125,20.996,30.273
1789994147.861223,-26.367,-73.242,11.719,14.648
1789994147.865073,-10.742,-67.383,17.090,16.113
1789994147.868923,4.395,-64.453,22.949,19.531
1789994147.872774,2.930,-63.477,14.648,10.742
1789994147.876624,-10.742,-61.523,7.324,0.488
1789994147.880474,-12.207,-66.406,6.348,7.324
1789994147.884324,-4.395,-69.336,3.418,10.742
1789994147.888944,-8.301,-62.988,0.000,1.953
1789994147.892795,-17.578,-60.547,-3.418,6.348
1789994147.896646,-22.949,-62.012,-7.812,-0.488
1789994147.900497,-4.395,-58.105,-5.371,0.488
1789994147.904348,-0.488,-55.664,-11.230,5.859
1789994147.908199,-21.484,-57.129,-15.625,-4.395
1789994147.912049,-30.273,-54.688,-14.160,-7.812
1789994147.915900,-20.020,-55.664,-18.555,-2.441
1789994147.919751,-6.348,-55.176,-15.625,5.371
1789994147.923602,-20.020,-58.594,-15.625,-4.395
1789994147.927453,-36.621,-60.547,-20.996,-20.508
1789994147.931304,-24.414,-47.363,-13.672,-14.648
1789994147.935874,-2.930,-40.039,-8.789,1.465
1789994147.939725,-6.348,-40.527,-14.160,2.930
1789994147.943576,-21.973,-44.434,-20.020,-12.695
1789994147.947428,-22.949,-43.945,-17.578,-24.414
1789994147.951279,-10.742,-41.504,-20.508,-12.207
1789994147.955131,-3.418,-41.992,-22.949,3.418
1789994147.958982,-15.137,-41.504,-20.996,-4.883
1789994147.962834,-33.691,-42.969,-23.926,-20.508
1789994147.966685,-35.645,-47.363,-31.738,-29.785
1789994147.970536,-28.320,-41.992,-29.297,-41.504
1789994147.974388,-41.504,-35.645,-25.391,-39.062
1789994147.978240,-52.246,-41.016,-34.180,-40.527
1789994147.982796,-27.832,-40.527,-37.598,-38.086
1789994147.986648,-14.160,-36.621,-34.180,-24.902
1789994147.990500,-24.414,-38.574,-28.809,-22.461
1789994147.994353,-33.691,-38.086,-24.414,-20.508
1789994147.998204,-26.367,-35.156,-31.250,-21.973
1789994148.002057,-9.766,-38.574,-39.062,-24.902
1789994148.005908,-14.648,-43.457,-26.855,-18.555
1789994148.009761,-30.273,-43.945,-17.578,-9.277
1789994148.013613,-25.879,-39.062,-22.949,-24.902
1789994148.017465,-7.812,-36.621,-23.438,-22.949
1789994148.021317,-13.184,-36.621,-23.926,-22.461
1789994148.025169,-29.297,-33.203,-29.297,-37.109
1789994148.029621,-29.785,-28.809,-31.250,-36.133
1789994148.033473,-19.043,-29.297,-29.785,-18.066
1789994148.037326,-12.207,-30.273,-31.250,-22.461
1789994148.041178,-21.484,-31.250,-26.367,-33.203
1789994148.045031,-36.133,-34.180,-24.902,-30.762
1789994148.048883,-31.250,-32.227,-26.855,-28.320
1789994148.052736,-21.484,-30.762,-28.320,-25.391
1789994148.056588,-33.691,-31.250,-29.785,-24.902
1789994148.060441,-47.852,-32.715,-26.855,-28.320
1789994148.064293,-35.156,-35.156,-28.320,-22.461
1789994148.068146,-17.090,-26.855,-28.320,-20.020
1789994148.071998,-25.879,-24.414,-30.762,-24.414
1789994148.076421,-41.016,-32.715,-34.668,-29.297
1789994148.080275,-38.574,-35.156,-32.715,-36.621
1789994148.084127,-23.926,-39.551,-39.062,-26.367
1789994148.087981,-21.484,-39.551,-37.109,-15.137
1789994148.091833,-33.203,-36.133,-31.738,-31.250
1789994148.095686,-36.621,-35.156,-37.598,-40.039
1789994148.099539,-16.113,-33.691,-35.645,-34.668
1789994148.103392,-5.371,-30.762,-35.156,-41.016
1789994148.107245,-20.508,-26.367,-31.250,-41.016
1789994148.111098,-31.738,-28.320,-27.344,-38.574
1789994148.114951,-24.414,-29.297,-32.715,-46.387
1789994148.118804,-14.648,-33.203,-38.086,-41.016
1789994148.123158,-27.344,-31.250,-34.180,-41.504
1789994148.127011,-47.852,-34.180,-26.367,-51.270
1789994148.130864,-44.922,-38.086,-35.156,-53.223
1789994148.134718,-33.691,-33.203,-48.828,-44.922
1789994148.138571,-31.250,-30.273,-41.504,-41.992
1789994148.142424,-37.109,-29.785,-34.180,-39.062
1789994148.146278,-41.504,-28.809,-40.527,-41.016
1789994148.150131,-33.691,-24.414,-39.062,-43.945
1789994148.153985,-28.320,-28.320,-40.039,-34.180
1789994148.157838,-37.109,-29.785,-41.504,-41.016
1789994148.161691,-41.504,-28.809,-40.039,-42.969
1789994148.165545,-28.320,-33.691,-39.062,-41.016
1789994148.170260,-31.250,-37.598,-37.598,-43.945
1789994148.174114,-46.387,-38.574,-48.828,-39.062
1789994148.177969,-44.434,-28.809,-45.410,-32.227
1789994148.181823,-34.668,-27.344,-30.762,-23.926
1789994148.185677,-28.320,-37.598,-39.551,-29.297
1789994148.189531,-28.320,-31.250,-35.645,-38.086
1789994148.193385,-28.809,-20.020,-22.949,-39.062
1789994148.197239,-28.320,-23.926,-36.621,-45.898
1789994148.201093,-27.344,-28.320,-40.527,-41.504
1789994148.204947,-32.227,-30.273,-36.621,-33.691
1789994148.208801,-52.246,-41.016,-39.551,-36.621
1789994148.212655,-54.199,-37.598,-38.574,-37.598
1789994148.217299,-38.574,-28.809,-40.039,-35.645
1789994148.221154,-32.715,-26.855,-31.738,-30.273
1789994148.225009,-42.480,-30.762,-28.320,-30.273
1789994148.228863,-59.570,-39.551,-33.203,-59.082
1789994148.232718,-51.758,-42.480,-33.691,-66.406
1789994148.236573,-37.598,-48.340,-36.133,-52.246
1789994148.240427,-51.270,-45.410,-38.086,-58.594
1789994148.244282,-60.059,-32.227,-36.621,-64.453
1789994148.248137,-48.828,-30.762,-38.574,-42.969
1789994148.251992,-29.297,-34.180,-38.086,-27.344
1789994148.255846,-15.625,-33.691,-38.574,-27.832
1789994148.259701,-39.551,-28.809,-35.156,-36.621
1789994148.264290,-75.195,-27.344,-37.598,-66.895
1789994148.268146,-63.965,-31.250,-42.969,-71.777
1789994148.272001,-58.105,-34.668,-39.062,-69.824
1789994148.275856,-81.543,-34.668,-33.203,-78.125
1789994148.279711,-103.516,-33.691,-35.645,-101.074
1789994148.283566,-100.586,-37.598,-40.527,-105.957
1789994148.287422,-90.332,-38.086,-25.391,-98.633
1789994148.291277,-108.398,-39.551,-32.227,-112.793
1789994148.295132,-127.930,-45.898,-40.039,-118.164
1789994148.298987,-122.070,-43.457,-35.156,-119.141
1789994148.302843,-108.398,-42.969,-41.504,-116.699
1789994148.306698,-109.863,-34.668,-40.039,-113.770
1789994148.311208,-118.164,-32.715,-34.668,-115.234
1789994148.315064,-105.469,-42.480,-33.691,-104.492
1789994148.318920,-87.402,-36.621,-30.762,-93.262
1789994148.322775,-87.402,-30.762,-27.832,-79.590
1789994148.326631,-92.285,-32.227,-25.391,-74.219
1789994148.330487,-85.938,-26.855,-24.414,-71.777
1789994148.334342,-63.965,-27.832,-29.297,-62.012
1789994148.338198,-53.711,-30.762,-28.320,-52.246
1789994148.342054,-64.941,-29.785,-27.344,-46.875
1789994148.345910,-69.824,-26.367,-28.809,-61.035
1789994148.349765,-55.176,-23.926,-31.738,-64.453
1789994148.353621,-43.457,-25.879,-39.551,-63.965
1789994148.358078,-46.875,-24.902,-35.156,-65.918
1789994148.361935,-53.223,-27.344,-29.785,-65.430
1789994148.365791,-45.898,-22.461,-30.273,-53.711
1789994148.369647,-31.250,-23.438,-32.227,-40.527
1789994148.373503,-40.039,-31.738,-33.691,-46.387
1789994148.377359,-52.734,-33.691,-34.180,-46.875
1789994148.381216,-53.711,-35.156,-38.086,-41.992
1789994148.385072,-48.340,-38.574,-36.621,-28.809
1789994148.388928,-45.410,-39.551,-33.203,-30.762
1789994148.392784,-54.199,-39.062,-28.809,-36.621
1789994148.396640,-50.781,-37.598,-28.320,-41.016
1789994148.400496,-29.297,-31.250,-31.250,-42.480
1789994148.404940,-25.879,-25.879,-36.133,-28.320
1789994148.408796,-38.574,-24.414,-35.156,-28.320
1789994148.412653,-34.668,-29.297,-33.203,-41.016
1789994148.416510,-17.578,-29.297,-26.855,-41.504
1789994148.420366,-12.695,-28.320,-21.484,-29.297
1789994148.424223,-25.391,-34.180,-21.973,-23.926
1789994148.428079,-31.738,-29.297,-21.973,-32.227
1789994148.431936,-21.973,-26.367,-30.273,-27.344
1789994148.435793,-13.184,-29.297,-34.180,-18.066
1789994148.439649,-20.996,-29.785,-28.809,-22.949
1789994148.443506,-35.645,-27.344,-26.367,-23.926
1789994148.447362,-32.227,-22.949,-34.668,-31.250
1789994148.451814,-14.648,-19.043,-36.621,-27.832
1789994148.455671,-20.996,-27.832,-31.250,-25.391
1789994148.459528,-42.480,-34.668,-37.109,-35.156
1789994148.463385,-43.945,-32.715,-45.898,-40.039
1789994148.467242,-26.367,-30.273,-41.016,-32.227
1789994148.471099,-23.438,-32.227,-31.250,-31.738
1789994148.474957,-41.016,-33.691,-31.250,-33.691
1789994148.478814,-48.828,-35.156,-33.203,-36.133
1789994148.482671,-45.410,-35.645,-31.738,-38.574
1789994148.486528,-34.668,-36.621,-38.574,-31.738
1789994148.490385,-32.715,-32.715,-45.410,-34.668
1789994148.494242,-35.156,-24.902,-35.156,-35.645
1789994148.498942,-28.320,-23.438,-30.762,-32.227
1789994148.502800,-16.602,-23.926,-37.109,-30.762
1789994148.506658,-14.160,-25.879,-31.250,-34.180
1789994148.510515,-30.762,-26.855,-20.508,-36.621
1789994148.514373,-33.203,-29.297,-30.762,-42.480
1789994148.518231,-13.184,-29.785,-42.969,-39.062
1789994148.522088,-2.930,-22.949,-41.504,-27.832
1789994148.525946,-19.531,-21.973,-34.668,-33.691
1789994148.529804,-26.855,-25.879,-33.691,-34.668
1789994148.533661,-13.672,-29.785,-32.227,-28.809
1789994148.537519,-8.789,-25.879,-38.086,-30.762
1789994148.541377,-20.020,-20.996,-41.016,-31.738
1789994148.546350,-32.227,-28.809,-31.738,-33.203
1789994148.550209,-20.996,-37.109,-26.855,-37.598
1789994148.554067,-5.859,-34.180,-32.715,-25.879
1789994148.557926,-24.902,-31.738,-37.109,-25.391
1789994148.561785,-41.016,-31.250,-36.621,-29.785
1789994148.565643,-35.156,-33.203,-42.969,-32.227
1789994148.569501,-27.832,-29.297,-38.086,-36.621
1789994148.573360,-31.250,-31.738,-32.227,-33.691
1789994148.577219,-48.340,-40.039,-35.156,-36.133
1789994148.581077,-58.105,-40.527,-31.738,-35.156
1789994148.584935,-45.898,-37.598,-22.949,-30.273
1789994148.588794,-33.691,-39.062,-27.344,-28.320
1789994148.593361,-46.387,-43.457,-33.203,-29.297
1789994148.597220,-48.828,-41.992,-38.086,-33.691
1789994148.601079,-33.203,-40.039,-43.945,-37.598
1789994148.604939,-31.250,-38.574,-40.527,-34.180
1789994148.608798,-39.062,-39.551,-36.621,-34.668
1789994148.612656,-49.805,-43.457,-34.180,-38.574
1789994148.616515,-40.039,-39.062,-30.273,-32.227
1789994148.620374,-20.508,-33.203,-31.250,-31.738
1789994148.624233,-26.855,-32.715,-35.645,-32.227
1789994148.628093,-41.504,-36.621,-36.621,-35.645
1789994148.631952,-42.969,-36.133,-41.504,-49.805
1789994148.635811,-22.461,-34.180,-41.992,-40.527
1789994148.640325,-15.137,-29.785,-33.691,-26.367
1789994148.644184,-37.598,-27.344,-32.715,-35.156
1789994148.648044,-49.316,-32.715,-37.598,-50.293
1789994148.651903,-38.086,-33.203,-36.133,-45.898
1789994148.655762,-29.297,-32.715,-33.691,-28.320
1789994148.659622,-38.086,-24.902,-40.039,-31.738
1789994148.663481,-53.223,-25.879,-42.480,-38.086
1789994148.667341,-38.086,-32.715,-36.621,-30.273
1789994148.671201,-18.066,-29.297,-29.785,-17.578
1789994148.675060,-37.109,-30.762,-27.832,-27.344
1789994148.678920,-46.387,-30.762,-26.855,-30.273
1789994148.682779,-29.297,-26.367,-34.180,-20.508
1789994148.687253,-17.578,-25.879,-28.320,-19.531
1789994148.691113,-27.344,-29.297,-25.391,-21.484
1789994148.694972,-42.480,-31.738,-32.227,-20.508
1789994148.698832,-37.598,-34.180,-28.809,-13.184
1789994148.702692,-17.090,-32.715,-30.762,-16.113
1789994148.706552,-15.625,-36.133,-31.738,-31.250
1789994148.710412,-34.668,-35.156,-31.738,-43.457
1789994148.714272,-35.645,-34.180,-33.691,-41.016
1789994148.718132,-22.461,-36.133,-35.156,-34.180
1789994148.721992,-17.578,-29.785,-35.156,-38.574
1789994148.725852,-34.668,-40.039,-39.062,-41.504
1789994148.729712,-53.711,-45.898,-38.086,-41.016
1789994148.734159,-45.410,-39.062,-42.969,-43.945
1789994148.738019,-23.438,-45.410,-43.457,-30.273
1789994148.741880,-14.160,-37.109,-31.738,-17.090
1789994148.745740,-42.480,-22.461,-35.156,-48.340
1789994148.749601,-61.035,-16.113,-43.457,-71.777
1789994148.753461,-44.434,-20.996,-47.852,-60.547
1789994148.757321,-40.039,-26.367,-49.805,-56.152
1789994148.761182,-53.711,-21.484,-58.105,-66.895
1789994148.765042,-54.688,-18.555,-62.500,-69.336
1789994148.768902,-36.621,-16.113,-62.988,-64.941
1789994148.772763,-34.180,-18.066,-60.059,-69.336
1789994148.776623,-46.387,-21.484,-55.176,-62.500
1789994148.780968,-35.645,-17.090,-48.828,-46.875
1789994148.784829,-18.555,-17.090,-49.316,-39.551
1789994148.788690,-17.090,-20.996,-56.152,-41.992
1789994148.792551,-26.367,-23.926,-52.734,-34.180
1789994148.796411,-36.133,-26.855,-48.340,-35.645
1789994148.800272,-28.809,-24.902,-48.828,-41.992
1789994148.804132,-14.160,-24.902,-50.293,-31.738
1789994148.807993,-19.531,-27.832,-46.875,-36.133
1789994148.811854,-31.738,-24.902,-47.363,-43.945
1789994148.815715,-21.484,-22.949,-47.852,-31.738
1789994148.819575,-10.254,-22.461,-47.363,-22.461
1789994148.823436,-11.230,-19.531,-44.434,-27.344
1789994148.827736,-26.367,-24.414,-45.410,-38.086
1789994148.831597,-29.785,-29.297,-45.410,-41.016
1789994148.835458,-8.789,-26.855,-41.992,-33.691
1789994148.839319,-5.859,-26.367,-38.086,-26.855
1789994148.843180,-25.391,-24.902,-35.645,-31.738
1789994148.847041,-40.039,-28.809,-38.086,-39.062
1789994148.850902,-31.738,-34.668,-43.457,-37.109
1789994148.854763,-19.531,-33.203,-41.504,-20.508
1789994148.858624,-29.785,-41.016,-42.480,-25.879
1789994148.862485,-42.969,-38.086,-41.504,-36.621
1789994148.866346,-32.227,-18.555,-41.016,-35.645
1789994148.870207,-17.090,-18.555,-41.992,-35.645
1789994148.874820,-14.648,-26.855,-42.969,-27.344
1789994148.878681,-17.578,-26.367,-44.434,-23.926
1789994148.882543,-8.301,-26.367,-42.969,-15.625
1789994148.886404,10.742,-19.043,-42.480,-2.930
1789994148.890265,19.043,-14.648,-42.480,-0.977
1789994148.894127,3.906,-18.066,-46.875,-4.395
1789994148.897989,-8.301,-21.484,-41.992,-1.953
1789994148.901850,7.812,-21.484,-36.133,-5.859
1789994148.905711,18.555,-13.184,-38.574,-4.395
1789994148.909573,3.418,-9.766,-41.992,-5.371
1789994148.913435,-20.508,-19.531,-41.016,-21.973
1789994148.917296,-18.555,-24.902,-45.410,-24.902
1789994148.921848,-2.441,-25.879,-41.504,-15.625
1789994148.925710,-10.254,-30.762,-38.574,-17.090
1789994148.929572,-27.832,-32.715,-45.898,-21.484
1789994148.933434,-20.020,-32.227,-42.480,-20.996
1789994148.937296,3.418,-31.250,-35.645,-11.230
1789994148.941158,-3.906,-29.297,-32.715,-8.789
1789994148.945019,-19.043,-31.738,-40.527,-19.531
1789994148.948881,-15.625,-33.691,-45.898,-24.902
1789994148.952744,-1.465,-26.367,-38.574,-12.695
1789994148.956605,-0.977,-28.809,-40.039,-7.324
1789994148.960467,-16.602,-35.156,-48.828,-15.625
1789994148.964329,-18.555,-34.180,-45.898,-16.602
1789994148.968834,-8.789,-30.762,-38.086,-4.395
1789994148.972696,-1.465,-25.879,-39.062,-6.348
1789994148.976559,-13.184,-24.902,-37.109,-16.602
1789994148.980421,-31.738,-32.227,-33.203,-20.996
1789994148.984283,-27.832,-33.203,-34.180,-25.391
1789994148.988146,-14.160,-25.879,-35.156,-24.414
1789994148.992008,-20.996,-22.949,-31.250,-25.879
1789994148.995871,-36.133,-25.391,-36.621,-34.180
1789994148.999733,-24.902,-29.297,-38.574,-20.508
1789994149.003596,-8.789,-27.832,-37.109,-14.160
1789994149.007458,-14.160,-27.344,-36.621,-25.391
1789994149.011320,-26.367,-24.902,-27.832,-24.414
1789994149.016101,-28.320,-24.414,-26.367,-21.973
1789994149.019964,-18.555,-31.738,-33.203,-20.508
1789994149.023827,-9.766,-31.250,-35.645,-21.484
1789994149.027690,-25.879,-24.902,-34.668,-23.926
1789994149.031553,-43.945,-34.668,-32.227,-38.086
1789994149.035416,-35.645,-42.969,-30.762,-43.457
1789994149.039279,-19.531,-34.180,-39.551,-26.855
1789994149.043142,-24.902,-31.738,-43.945,-21.973
1789994149.047005,-37.598,-35.645,-38.574,-31.250
1789994149.050868,-34.668,-31.250,-40.527,-35.156
1789994149.054731,-22.949,-23.926,-34.668,-32.227
1789994149.058594,-24.414,-23.926,-27.832,-36.133
1789994149.062991,-36.133,-29.297,-26.855,-35.645
1789994149.066854,-30.273,-33.691,-29.785,-27.832
1789994149.070718,-16.602,-34.668,-36.621,-28.809
1789994149.074581,-18.555,-34.668,-34.668,-23.926
1789994149.078444,-34.668,-30.762,-33.203,-24.902
1789994149.082308,-43.945,-28.809,-35.645,-32.715
1789994149.086171,-29.297,-30.762,-41.016,-20.020
1789994149.090035,-23.438,-32.227,-46.387,-15.137
1789994149.093898,-41.504,-31.738,-41.504,-22.949
1789994149.097761,-45.898,-31.738,-33.203,-27.832
1789994149.101625,-36.133,-30.762,-35.645,-30.762
1789994149.105488,-29.785,-28.809,-42.969,-28.809
1789994149.109846,-33.691,-30.273,-37.109,-24.414
1789994149.113710,-44.434,-34.180,-26.367,-30.273
1789994149.117573,-43.457,-37.598,-31.738,-26.855
1789994149.121437,-38.086,-46.387,-39.062,-27.832
1789994149.125301,-44.922,-46.875,-39.551,-38.574
1789994149.129165,-50.781,-40.039,-40.039,-42.969
1789994149.133029,-47.363,-37.109,-49.805,-44.922
1789994149.136892,-31.738,-33.203,-50.781,-42.969
1789994149.140756,-25.879,-35.156,-36.621,-34.668
1789994149.144619,-40.039,-34.180,-29.297,-33.203
1789994149.148483,-46.875,-37.598,-32.715,-43.945
1789994149.152347,-35.156,-39.062,-35.156,-41.992
1789994149.156656,-35.645,-41.016,-36.133,-33.691
1789994149.160520,-47.363,-40.527,-37.598,-32.715
1789994149.164384,-54.688,-37.598,-40.039,-33.691
1789994149.168248,-55.664,-41.504,-42.480,-41.504
1789994149.172112,-39.551,-36.621,-44.922,-38.086
1789994149.175976,-33.203,-32.227,-41.016,-33.691
1789994149.179840,-48.340,-31.738,-41.016,-37.109
1789994149.183704,-44.434,-32.227,-37.598,-33.691
1789994149.187568,-30.273,-37.598,-20.996,-27.832
1789994149.191432,-36.621,-39.062,-29.785,-26.855
1789994149.195296,-51.758,-39.062,-40.039,-32.715
1789994149.199160,-45.410,-39.062,-29.297,-37.109
1789994149.203448,-32.227,-36.621,-30.273,-34.668
1789994149.207312,-27.344,-34.668,-36.133,-16.602
1789994149.211176,-33.203,-31.250,-29.297,-9.766
1789994149.215040,-38.086,-29.785,-35.156,-25.391
1789994149.218905,-20.020,-29.297,-38.574,-26.367
1789994149.222769,-12.695,-32.227,-38.086,-28.320
1789994149.226633,-27.344,-38.086,-38.574,-34.668
1789994149.230498,-39.062,-41.992,-35.156,-40.527
1789994149.234362,-31.250,-40.039,-34.180,-38.086
1789994149.238226,-9.277,-34.668,-35.645,-30.273
1789994149.242090,-11.719,-31.738,-35.156,-30.273
1789994149.245955,-25.879,-32.227,-34.668,-41.016
1789994149.250187,-15.625,-30.762,-30.762,-38.574
1789994149.254052,0.000,-31.250,-33.691,-31.250
1789994149.257916,-0.977,-33.203,-36.621,-33.203
1789994149.261781,-16.113,-29.785,-21.973,-28.809
1789994149.265645,-41.992,-38.574,-21.484,-40.527
1789994149.269510,-43.457,-45.410,-25.879,-44.434
1789994149.273374,-41.504,-41.504,-23.438,-47.363
1789994149.277239,-64.453,-41.504,-27.832,-63.965
1789994149.281103,-82.031,-42.480,-31.738,-67.383
1789994149.284968,-79.590,-44.922,-32.715,-67.871
1789994149.288832,-77.148,-49.805,-39.551,-65.918
1789994149.292697,-88.379,-56.641,-41.504,-78.613
1789994149.297197,-100.098,-53.223,-34.180,-91.309
1789994149.301062,-96.191,-47.852,-30.273,-84.473
1789994149.304927,-76.172,-46.875,-24.902,-67.871
1789994149.308792,-76.172,-44.434,-25.391,-63.965
1789994149.312657,-83.008,-41.992,-28.320,-68.848
1789994149.316522,-74.707,-42.480,-24.902,-60.547
1789994149.320387,-56.641,-38.086,-22.461,-40.527
1789994149.324252,-48.828,-33.691,-28.809,-49.805
1789994149.328117,-64.453,-37.109,-28.809,-62.012
1789994149.331982,-71.777,-41.992,-27.344,-45.410
1789994149.335847,-53.223,-39.551,-37.109,-49.316
1789994149.339711,-43.945,-34.668,-37.109,-49.316
1789994149.344192,-50.781,-40.039,-32.715,-39.551
1789994149.348057,-53.711,-32.227,-29.785,-40.527
1789994149.351923,-50.293,-26.855,-27.832,-49.805
1789994149.355788,-41.016,-29.785,-29.785,-37.109
1789994149.359653,-41.504,-27.344,-33.691,-23.438
1789994149.363518,-45.898,-24.902,-33.203,-29.297
1789994149.367384,-29.785,-24.902,-20.996,-28.320
1789994149.371249,-22.461,-34.180,-17.578,-30.762
1789994149.375114,-31.250,-42.969,-24.902,-22.461
1789994149.378980,-39.062,-38.574,-28.809,-18.066
1789994149.382845,-40.527,-30.762,-21.973,-23.926
1789994149.386710,-30.273,-29.297,-14.648,-18.555
1789994149.391144,-34.668,-27.344,-20.508,-18.555
1789994149.395010,-60.059,-34.180,-25.879,-28.320
1789994149.398875,-62.500,-41.992,-28.320,-33.203
1789994149.402741,-42.480,-37.598,-33.691,-25.879
1789994149.406606,-35.156,-33.203,-31.738,-15.137
1789994149.410472,-43.945,-32.227,-26.855,-32.715
1789994149.414338,-57.129,-36.133,-32.227,-46.387
1789994149.418203,-53.711,-36.621,-34.180,-37.598
1789994149.422069,-35.156,-33.691,-36.133,-33.203
1789994149.425935,-35.645,-34.180,-42.969,-38.086
1789994149.429801,-45.898,-35.156,-42.480,-44.434
1789994149.433666,-39.062,-34.668,-46.875,-46.387
1789994149.438039,-21.973,-29.297,-40.039,-41.016
1789994149.441905,-22.949,-25.391,-36.133,-40.527
1789994149.445771,-40.039,-27.832,-43.457,-51.270
1789994149.449637,-38.086,-28.809,-43.945,-54.199
1789994149.453503,-17.090,-27.832,-41.016,-42.969
1789994149.457369,-11.719,-27.832,-40.527,-38.086
1789994149.461235,-27.344,-27.344,-42.480,-37.109
1789994149.465101,-35.156,-32.715,-37.109,-30.762
1789994149.468967,-19.043,-33.691,-31.250,-27.344
1789994149.472833,-1.953,-26.855,-25.391,-39.062
1789994149.476699,-18.555,-31.738,-27.344,-39.062
1789994149.480565,-42.969,-40.039,-36.133,-30.273
1789994149.484919,-39.551,-42.969,-35.156,-25.879
1789994149.488785,-28.809,-43.457,-33.691,-35.645
1789994149.492652,-36.621,-39.062,-25.391,-41.504
1789994149.496518,-40.039,-37.109,-31.250,-23.926
1789994149.500384,-31.738,-40.039,-40.527,-15.625
1789994149.504251,-37.109,-31.738,-32.715,-45.898
1789994149.508117,-44.922,-27.832,-35.645,-57.129
1789994149.511983,-60.059,-32.227,-36.621,-48.340
1789994149.515849,-68.359,-24.414,-39.062,-62.988
1789994149.519716,-60.547,-15.137,-46.875,-92.285
1789994149.523582,-55.176,-16.602,-56.641,-102.539
1789994149.527448,-61.523,-17.090,-62.500,-95.703
1789994149.531754,-64.453,-22.949,-62.012,-92.773
1789994149.535620,-54.199,-24.414,-56.641,-88.379
1789994149.539487,-43.457,-20.508,-62.988,-82.031
1789994149.543353,-46.875,-17.090,-66.895,-83.984
1789994149.547220,-57.617,-18.066,-59.570,-72.266
1789994149.551086,-43.945,-19.531,-60.059,-56.641
1789994149.554953,-31.738,-17.090,-59.570,-61.523
1789994149.558820,-39.551,-20.508,-53.223,-65.918
1789994149.562686,-44.922,-25.879,-52.246,-74.219
1789994149.566553,-46.875,-20.508,-53.223,-69.336
1789994149.570419,-44.434,-20.508,-49.316,-60.547
1789994149.574286,-43.457,-25.879,-47.363,-52.246
1789994149.578532,-58.594,-29.297,-49.805,-47.852
1789994149.582399,-63.477,-30.762,-51.270,-52.246
1789994149.586266,-50.781,-32.715,-54.688,-55.176
1789994149.590132,-45.410,-34.180,-50.293,-60.547
1789994149.593999,-55.664,-28.320,-44.434,-56.152
1789994149.597866,-65.918,-24.414,-50.293,-48.340
1789994149.601733,-55.176,-20.020,-55.664,-43.457
1789994149.605600,-42.969,-25.391,-56.641,-49.805
1789994149.609467,-42.969,-30.762,-46.875,-61.523
1789994149.613333,-44.434,-22.461,-41.016,-46.875
1789994149.617200,-42.480,-19.043,-50.293,-36.133
1789994149.621067,-31.250,-20.020,-52.246,-31.738
1789994149.625283,-28.320,-23.926,-41.016,-34.180
1789994149.629150,-39.551,-22.461,-37.598,-45.410
1789994149.633017,-30.273,-25.391,-39.551,-39.551
1789994149.636884,-3.906,-24.414,-37.109,-34.668
1789994149.640751,-6.836,-21.973,-35.645,-44.922
1789994149.644618,-25.879,-28.809,-40.527,-46.387
1789994149.648485,-41.504,-40.039,-48.340,-47.852
1789994149.652352,-34.180,-35.156,-45.410,-55.664
1789994149.656219,-23.438,-23.926,-46.387,-50.293
1789994149.660086,-38.574,-22.461,-51.758,-43.457
1789994149.663953,-44.922,-21.484,-45.898,-35.156
1789994149.667820,-35.645,-24.902,-41.016,-26.855
1789994149.672288,-26.367,-28.809,-41.504,-23.438
1789994149.676156,-31.250,-36.133,-42.480,-29.785
1789994149.680023,-39.062,-39.062,-38.086,-31.738
1789994149.683890,-32.715,-37.109,-33.203,-27.344
1789994149.687758,-19.531,-36.621,-38.574,-19.043
1789994149.691625,-21.973,-32.227,-51.270,-19.531
1789994149.695493,-13.672,-31.250,-52.246,-20.020
1789994149.699360,0.000,-30.762,-35.156,-18.555
1789994149.703227,-21.484,-31.250,-29.785,-34.180
1789994149.707095,-32.715,-32.227,-35.156,-22.461
1789994149.710962,-36.133,-27.832,-26.367,-16.113
1789994149.714829,-46.875,-35.156,-24.414,-23.438
1789994149.719254,-38.574,-44.922,-21.484,-29.785
1789994149.723121,-30.762,-44.922,-6.836,-50.781
1789994149.726989,-37.598,-41.504,-2.930,-46.387
1789994149.730857,-41.504,-40.039,-4.883,-38.574
1789994149.734725,-38.574,-43.945,-10.742,-42.969
1789994149.738592,-38.574,-45.898,-21.484,-48.828
1789994149.742460,-40.527,-43.945,-21.973,-41.992
1789994149.746328,-41.016,-37.598,-21.484,-26.855
1789994149.750195,-38.086,-37.109,-23.438,-31.738
1789994149.754063,-28.320,-42.480,-27.344,-32.715
1789994149.757931,-31.738,-41.504,-25.879,-30.762
1789994149.761798,-46.387,-41.016,-20.020,-32.227
1789994149.766238,-47.852,-37.109,-21.973,-31.250
1789994149.770106,-32.715,-33.691,-22.461,-27.832
1789994149.773974,-29.297,-34.668,-18.555,-26.855
1789994149.777843,-38.086,-32.715,-19.531,-29.785
1789994149.781710,-51.270,-32.715,-28.809,-33.203
1789994149.785578,-45.410,-30.762,-32.715,-29.297
1789994149.789447,-28.320,-31.250,-31.738,-28.320
1789994149.793315,-41.992,-36.621,-33.691,-46.875
1789994149.797183,-51.270,-36.133,-32.227,-48.340
1789994149.801051,-37.109,-37.598,-31.738,-42.480
1789994149.804919,-23.438,-43.945,-37.109,-41.992
1789994149.808787,-23.926,-41.016,-35.645,-39.062
1789994149.813129,-37.598,-32.715,-32.715,-31.738
1789994149.816997,-40.039,-31.738,-32.227,-17.578
1789994149.820866,-19.531,-38.574,-38.086,-21.973
1789994149.824734,-16.602,-32.715,-37.598,-34.180
1789994149.828602,-28.320,-21.484,-30.762,-32.715
1789994149.832471,-28.320,-24.414,-33.691,-19.531
1789994149.836339,-16.602,-25.879,-39.062,-13.672
1789994149.840207,-12.695,-24.902,-29.785,-16.602
1789994149.844076,-20.508,-26.367,-20.508,-12.695
1789994149.847944,-30.273,-24.902,-20.508,-23.926
1789994149.851812,-25.391,-24.902,-28.809,-40.039
1789994149.855680,-8.789,-19.531,-31.738,-29.297
1789994149.860009,-19.043,-22.461,-34.180,-28.809
1789994149.863878,-27.832,-29.297,-37.598,-29.785
1789994149.867747,-24.902,-28.809,-36.621,-26.367
1789994149.871615,-12.207,-31.738,-31.738,-28.320
1789994149.875484,-6.836,-30.762,-42.969,-31.738
1789994149.879353,-27.344,-32.227,-49.805,-38.086
1789994149.883221,-36.133,-37.109,-36.133,-39.551
1789994149.887090,-26.367,-41.016,-33.691,-35.645
1789994149.890958,-15.625,-35.156,-35.156,-36.621
1789994149.894827,-23.438,-32.227,-32.715,-37.109
1789994149.898695,-37.598,-34.180,-37.598,-27.344
1789994149.902564,-20.996,-30.762,-39.551,-12.695
1789994149.906826,-6.348,-28.320,-32.715,-9.277
1789994149.910695,-16.113,-30.762,-32.227,-21.973
1789994149.914564,-29.785,-39.062,-47.363,-41.504
1789994149.918433,-28.809,-34.668,-51.758,-49.805
1789994149.922302,-20.020,-31.738,-55.176,-52.246
1789994149.926171,-20.508,-33.691,-50.781,-42.480
1789994149.930039,-22.949,-24.414,-40.039,-16.113
1789994149.933908,-20.020,-21.484,-41.992,-16.602
1789994149.937777,-10.742,-28.320,-37.598,-36.133
1789994149.941646,-13.672,-32.227,-41.504,-39.062
1789994149.945515,-25.879,-33.203,-42.969,-39.062
1789994149.949384,-23.926,-28.320,-33.203,-46.387
1789994149.953910,-18.555,-29.785,-34.668,-41.504
1789994149.957779,-20.508,-28.320,-39.062,-27.832
1789994149.961648,-27.832,-23.926,-37.598,-36.133
1789994149.965517,-38.086,-30.273,-38.086,-37.598
1789994149.969387,-29.785,-34.668,-43.457,-30.273
1789994149.973256,-19.531,-38.574,-39.062,-25.879
1789994149.977125,-25.391,-37.109,-28.320,-11.719
1789994149.980994,-33.203,-33.203,-32.227,-11.230
1789994149.984863,-30.273,-32.227,-43.457,-26.367
1789994149.988733,-17.090,-31.738,-45.410,-26.367
1789994149.992602,-20.020,-30.273,-31.738,-10.742
1789994149.996471,-26.855,-29.785,-27.832,-18.555
1789994150.000682,-27.344,-29.785,-38.574,-41.016
1789994150.004551,-17.090,-33.691,-36.133,-41.016
1789994150.008421,-11.719,-34.668,-35.156,-31.738
1789994150.012290,-25.391,-37.109,-38.574,-24.414
1789994150.016160,-33.203,-35.156,-37.598,-24.902
1789994150.020029,-22.461,-37.109,-45.898,-37.598
1789994150.023899,-0.488,-37.109,-47.852,-25.391
1789994150.027768,-19.531,-33.691,-29.297,-23.438
1789994150.031637,-50.293,-36.621,-24.902,-45.898
1789994150.035507,-37.598,-38.086,-26.855,-31.738
1789994150.039376,-21.973,-38.574,-25.879,-9.766
1789994150.043246,-23.926,-42.480,-30.273,-10.742
1789994150.047693,0.000,-41.992,-29.297,-15.625
1789994150.051563,0.000,-40.527,-29.785,-31.738
1789994150.055432,0.000,-37.598,-29.297,-47.852
1789994150.059302,0.000,-34.180,-28.320,-43.457
1789994150.063172,0.000,-28.809,-23.926,-31.250
1789994150.067041,0.000,-29.785,-21.973,-31.738
1789994150.070911,0.000,-38.086,-22.949,-32.227
1789994150.074781,0.000,-36.621,-23.926,-21.973
1789994150.078651,0.000,-36.133,-27.832,-16.113
1789994150.082520,0.000,-40.527,-27.832,-14.648
1789994150.086390,0.000,-39.551,-30.273,-22.949
1789994150.090260,0.000,-36.133,-38.574,-28.809
1789994150.094691,-18.066,-36.621,-39.551,-19.531
1789994150.098561,-24.414,-32.227,-38.574,-26.367
1789994150.102431,-22.949,-32.715,-29.297,-27.832
1789994150.106301,-18.555,-33.691,-23.438,-17.578
1789994150.110171,-21.973,-34.668,-30.762,-27.832
1789994150.114041,-30.762,-32.715,-28.320,-23.926
1789994150.117912,-30.273,-27.832,-22.461,-25.391
1789994150.121782,-18.555,-24.414,-21.484,-35.645
1789994150.125652,-20.996,-28.320,-27.344,-33.691
1789994150.129522,-31.250,-33.203,-27.344,-22.461
1789994150.133392,-29.785,-28.320,-28.320,-21.484
1789994150.137262,-12.695,-25.391,-33.691,-23.438
1789994150.141652,-4.395,-23.926,-23.438,-20.020
1789994150.145522,-21.484,-22.461,-14.648,-19.531
1789994150.149393,-27.832,-16.113,-12.695,-14.160
1789994150.153263,-23.926,-29.297,-17.090,-20.508
1789994150.157133,-24.414,-42.480,-24.414,-18.066
1789994150.161004,-29.297,-30.273,-20.996,-18.066
1789994150.164874,-38.086,-22.949,-20.508,-32.227
1789994150.168744,-34.180,-26.855,-29.297,-36.133
1789994150.172615,-22.949,-26.367,-38.086,-24.414
1789994150.176485,-31.250,-28.809,-37.598,-25.391
1789994150.180355,-41.504,-32.715,-28.809,-34.180
1789994150.184226,-35.645,-29.785,-27.344,-24.414
1789994150.188565,-29.297,-33.691,-29.785,-22.949
1789994150.192436,-24.414,-35.645,-24.902,-38.574
1789994150.196307,-28.320,-29.297,-22.461,-36.621
1789994150.200177,-34.668,-31.738,-27.344,-34.668
1789994150.204048,-32.227,-37.109,-29.785,-41.504
1789994150.207918,-35.645,-41.504,-30.273,-34.668
1789994150.211789,-43.457,-42.969,-31.250,-33.691
1789994150.215660,-45.410,-40.039,-33.203,-34.180
1789994150.219530,-35.156,-36.621,-28.809,-29.785
1789994150.223401,-33.203,-34.180,-24.414,-34.180
1789994150.227272,-37.598,-37.598,-24.414,-41.016
1789994150.231142,-47.363,-37.109,-30.273,-40.527
1789994150.235438,-45.898,-30.762,-34.180,-24.414
1789994150.239308,-26.367,-25.391,-29.297,-18.066
1789994150.243179,-23.438,-26.367,-32.227,-26.367
1789994150.247050,-40.039,-27.344,-34.668,-42.969
1789994150.250921,-40.039,-30.273,-32.227,-48.828
1789994150.254792,-26.367,-31.738,-36.133,-32.227
1789994150.258663,-27.344,-28.320,-36.133,-35.156
1789994150.262533,-41.504,-33.203,-33.691,-35.156
1789994150.266404,-42.480,-39.551,-36.133,-31.738
1789994150.270275,-34.180,-44.434,-37.598,-40.527
1789994150.274146,-31.250,-45.898,-38.086,-42.969
1789994150.278017,-32.227,-42.969,-31.738,-42.969
1789994150.282556,-38.574,-39.551,-36.621,-36.133
1789994150.286427,-36.133,-37.109,-35.645,-37.109
1789994150.290299,-26.855,-41.992,-32.227,-47.363
1789994150.294170,-27.832,-36.133,-41.992,-39.551
1789994150.298041,-40.527,-35.156,-31.250,-34.180
1789994150.301913,-34.668,-46.875,-26.367,-34.668
1789994150.305784,-17.578,-54.199,-32.715,-21.973
1789994150.309655,-23.438,-53.711,-30.273,-12.695
1789994150.313526,-45.898,-44.922,-26.855,-32.227
1789994150.317397,-50.781,-36.621,-37.109,-46.875
1789994150.321269,-26.855,-38.574,-46.875,-32.715
1789994150.325140,-2.441,-37.598,-47.852,-11.719
1789994150.329338,-3.418,-36.133,-43.457,-13.672
1789994150.333210,-2.930,-34.668,-41.992,-3.418
1789994150.337081,11.230,-29.785,-45.898,10.254
1789994150.340953,20.996,-33.691,-45.898,0.977
1789994150.344824,21.973,-32.715,-42.480,2.930
1789994150.348695,4.395,-33.691,-47.852,-2.930
1789994150.352567,-2.441,-36.621,-49.805,-12.695
1789994150.356438,5.371,-32.227,-47.363,-14.648
1789994150.360310,0.000,-34.180,-46.387,-9.277
1789994150.364181,-13.672,-30.762,-44.922,-0.488
1789994150.368052,-13.672,-30.762,-48.828,-11.719
1789994150.371924,-3.418,-31.250,-36.133,-20.020
1789994150.376093,-10.742,-28.320,-29.297,-19.043
1789994150.379964,-25.879,-37.598,-34.180,-21.484
1789994150.383836,-20.996,-44.922,-34.668,-27.344
1789994150.387707,-15.137,-42.969,-34.668,-26.855
1789994150.391579,-19.531,-34.668,-29.785,-17.578
1789994150.395451,-26.367,-28.320,-28.809,-15.625
1789994150.399322,-27.832,-24.414,-29.785,-7.812
1789994150.403194,-15.625,-25.391,-31.250,-17.578
1789994150.407065,-18.555,-32.227,-36.133,-35.645
1789994150.410937,-34.180,-31.250,-33.203,-33.203
1789994150.414808,-36.621,-26.855,-30.762,-28.809
1789994150.418680,-26.855,-28.320,-27.832,-27.344
1789994150.423078,-25.391,-30.273,-28.809,-33.691
1789994150.426950,-24.414,-32.227,-30.273,-39.062
1789994150.430822,-29.785,-29.785,-28.320,-36.133
1789994150.434694,-38.574,-34.668,-29.297,-35.156
1789994150.438565,-23.438,-35.156,-27.832,-34.180
1789994150.442437,-23.438,-31.738,-26.367,-31.250
1789994150.446309,-36.621,-35.645,-28.809,-28.320
1789994150.450181,-38.574,-36.133,-32.227,-27.344
1789994150.454053,-38.574,-37.598,-33.203,-22.949
1789994150.457925,-28.809,-37.109,-25.879,-21.484
1789994150.461797,-33.691,-36.133,-23.926,-36.621
1789994150.465668,-48.340,-31.738,-29.785,-50.293
1789994150.470032,-41.504,-28.320,-34.668,-41.016
1789994150.473904,-34.668,-35.645,-37.598,-42.480
1789994150.477776,-34.668,-33.691,-30.762,-42.480
1789994150.481648,-41.992,-26.367,-32.715,-39.062
1789994150.485521,-41.992,-22.461,-38.086,-37.598
1789994150.489393,-38.574,-24.902,-34.180,-36.621
1789994150.493265,-36.621,-31.250,-34.668,-47.852
1789994150.497137,-45.410,-33.203,-35.645,-57.617
1789994150.501009,-58.594,-35.156,-33.691,-44.922
1789994150.504881,-38.574,-35.156,-37.598,-35.645
1789994150.508753,-22.949,-32.715,-38.086,-40.039
1789994150.512625,-39.062,-35.156,-35.156,-40.039
1789994150.516951,-46.875,-36.621,-33.691,-41.504
1789994150.520823,-36.621,-34.180,-26.367,-35.156
1789994150.524695,-29.297,-27.832,-23.926,-39.551
1789994150.528568,-40.039,-30.762,-27.832,-45.410
1789994150.532440,-48.828,-31.250,-29.785,-41.016
1789994150.536313,-23.926,-31.250,-29.785,-16.113
1789994150.540185,-14.648,-32.715,-27.344,-8.789
1789994150.544057,-37.598,-23.438,-24.414,-44.922
1789994150.547930,-50.781,-22.949,-32.715,-51.270
1789994150.551802,-47.363,-21.973,-38.086,-41.016
1789994150.555674,-39.551,-24.902,-40.039,-42.969
1789994150.559546,-40.039,-29.785,-47.852,-44.922
1789994150.563859,-55.176,-31.738,-54.688,-53.223
1789994150.567731,-57.129,-36.133,-56.641,-44.434
1789994150.571604,-41.016,-35.156,-53.223,-39.062
1789994150.575476,-34.180,-32.715,-51.270,-42.969
1789994150.579349,-41.992,-30.273,-48.340,-34.668
1789994150.583222,-45.410,-28.320,-48.828,-33.691
1789994150.587094,-33.691,-27.832,-48.828,-41.016
1789994150.590967,-20.020,-23.926,-45.898,-35.156
1789994150.594839,-27.832,-30.762,-42.969,-33.203
1789994150.598712,-41.504,-32.227,-42.480,-41.016
1789994150.602585,-33.691,-22.949,-38.086,-36.133
1789994150.606457,-24.902,-23.438,-36.621,-31.738
1789994150.610721,-27.832,-19.531,-35.645,-33.203
1789994150.614594,-41.504,-20.508,-35.645,-38.086
1789994150.618467,-35.645,-24.902,-32.227,-36.621
1789994150.622339,-22.949,-27.832,-31.738,-41.504
1789994150.626212,-19.043,-29.785,-41.504,-40.039
1789994150.630085,-29.297,-25.391,-39.062,-35.645
1789994150.633958,-51.270,-26.855,-33.691,-39.551
1789994150.637831,-43.945,-29.785,-40.039,-27.344
1789994150.641703,-28.809,-23.926,-37.598,-22.949
1789994150.645576,-29.785,-25.391,-32.715,-33.691
1789994150.649449,-34.180,-21.973,-34.180,-38.086
1789994150.653322,-25.391,-19.531,-29.297,-33.691
1789994150.657570,-18.066,-29.297,-34.180,-29.785
1789994150.661443,-32.715,-31.250,-38.086,-30.273
1789994150.665316,-24.414,-23.926,-29.785,-7.324
1789994150.669189,-1.465,-34.180,-24.414,5.859
1789994150.673062,-8.789,-37.109,-14.648,-13.672
1789994150.676935,-28.320,-31.250,-9.766,-37.598
1789994150.680808,-45.898,-38.574,-10.742,-43.457
1789994150.684681,-43.945,-36.621,-4.883,-27.832
1789994150.688554,-31.738,-38.086,5.371,-27.832
1789994150.692427,-26.855,-42.969,12.695,-35.645
1789994150.696300,-36.133,-43.457,14.648,-30.273
1789994150.700173,-41.504,-49.805,13.184,-25.391
1789994150.704668,-28.320,-50.781,10.254,-16.113
1789994150.708541,-15.625,-54.688,10.742,7.324
1789994150.712414,-27.344,-56.641,6.836,3.418
1789994150.716287,-44.434,-55.176,4.395,-15.137
1789994150.720161,-30.762,-58.594,0.000,-10.742
1789994150.724034,-16.113,-56.152,-11.719,-4.883
1789994150.727907,-19.531,-52.246,-8.789,-0.977
1789994150.731781,-26.367,-47.852,2.930,0.977
1789994150.735654,-18.066,-47.363,4.395,1.465
1789994150.739527,-0.488,-46.875,-4.883,2.930
1789994150.743401,-7.812,-41.992,-12.207,-4.883
1789994150.747274,-29.785,-46.875,-12.207,-8.301
1789994150.751436,-30.762,-46.875,-11.230,-7.324
1789994150.755310,-21.973,-41.992,-11.230,-10.742
1789994150.759183,-27.344,-52.246,-18.066,-21.973
1789994150.763057,-38.574,-51.270,-27.344,-30.273
1789994150.766930,-41.992,-43.945,-19.531,-32.715
1789994150.770804,-34.180,-44.434,-11.230,-26.367
1789994150.774677,-31.738,-42.969,-16.113,-21.484
1789994150.778551,-40.527,-37.598,-8.301,-30.273
1789994150.782424,-49.316,-37.598,-7.812,-30.762
1789994150.786298,-58.594,-38.086,-18.066,-39.062
1789994150.790171,-55.176,-33.691,-16.113,-53.223
1789994150.794044,-62.500,-29.785,-13.672,-66.895
1789994150.798437,-93.750,-33.203,-17.090,-91.797
1789994150.802310,-108.887,-39.551,-15.625,-105.469
1789994150.806184,-123.047,-37.109,-16.602,-119.141
1789994150.810058,-145.996,-23.438,-18.066,-147.461
1789994150.813931,-180.176,-22.949,-20.020,-178.711
1789994150.817805,-208.984,-21.484,-18.066,-204.590
1789994150.821679,-214.355,-23.926,-15.137,-206.543
1789994150.825553,-224.609,-24.414,-11.719,-198.730
1789994150.829426,-246.094,-15.137,-18.555,-218.750
1789994150.833300,-270.996,-14.648,-27.832,-252.441
1789994150.837174,-266.113,-13.184,-22.949,-258.301
1789994150.841048,-240.234,-1.953,-23.438,-246.094
1789994150.845416,0.000,-3.418,-27.832,-244.141
1789994150.849290,0.000,-8.301,-24.902,-230.957
1789994150.853164,0.000,-8.301,-21.973,-203.613
1789994150.857038,0.000,-15.625,-22.949,-184.082
1789994150.860912,0.000,-19.043,-25.879,-163.574
1789994150.864786,0.000,-26.855,-30.273,-152.832
1789994150.868660,0.000,-33.691,-26.855,-141.113
1789994150.872534,0.000,-28.320,-28.809,-119.629
1789994150.876408,0.000,-31.250,-32.227,-107.422
1789994150.880282,0.000,-35.645,-32.227,-92.773
1789994150.884156,0.000,-37.598,-29.785,-84.473
1789994150.888030,0.000,-41.016,-31.738,-81.055
1789994150.892329,-62.988,-42.480,-35.156,-72.266
1789994150.896203,-63.477,-47.363,-38.086,-50.781
1789994150.900077,-60.059,-45.410,-38.086,-44.922
1789994150.903951,-37.598,-43.945,-39.551,-48.340
1789994150.907825,-16.602,-42.480,-40.527,-24.414
1789994150.911700,-23.926,-42.480,-43.945,-20.020
1789994150.915574,-30.762,-46.387,-39.062,-20.996
1789994150.919448,-15.137,-41.992,-27.344,-3.906
1789994150.923322,3.418,-37.598,-21.973,28.809
1789994150.927197,7.812,-33.203,-24.902,19.043
1789994150.931071,0.000,-36.133,-29.785,-0.488
1789994150.934945,-3.906,-41.016,-32.227,9.277
1789994150.939223,15.625,-37.598,-31.738,11.230
1789994150.943097,37.598,-33.203,-21.973,23.438
1789994150.946972,27.344,-33.691,-22.461,34.180
1789994150.950846,17.578,-38.086,-28.320,31.738
1789994150.954720,30.762,-41.504,-28.809,33.691
1789994150.958595,40.039,-44.922,-32.715,39.551
1789994150.962469,35.645,-39.551,-31.250,33.691
1789994150.966344,32.715,-36.133,-26.855,36.133
1789994150.970218,35.156,-38.086,-29.785,51.270
1789994150.974092,44.922,-44.434,-30.762,46.387
1789994150.977967,46.875,-43.457,-38.574,38.574
1789994150.981841,31.738,-41.016,-41.504,41.992
1789994150.986081,27.832,-44.434,-36.133,42.480
1789994150.989956,40.527,-44.434,-37.598,33.203
1789994150.993831,36.621,-44.922,-38.574,18.555
1789994150.997705,20.508,-46.875,-38.086,18.066
1789994151.001580,20.020,-46.387,-36.621,34.668
1789994151.005454,25.879,-35.645,-39.062,41.992
1789994151.009329,32.227,-30.762,-39.062,38.574
1789994151.013203,31.250,-33.203,-36.133,43.945
1789994151.017078,16.113,-33.691,-35.645,38.574
1789994151.020953,26.367,-29.785,-29.297,28.320
1789994151.024827,40.527,-29.785,-31.250,29.785
1789994151.028702,25.879,-31.250,-35.645,28.320
1789994151.032912,9.766,-30.273,-37.598,20.996
1789994151.036787,17.578,-32.227,-38.086,25.391
1789994151.040662,32.227,-36.621,-28.320,33.691
1789994151.044537,26.367,-36.621,-29.297,23.438
1789994151.048411,13.672,-32.227,-40.527,15.137
1789994151.052286,4.395,-34.180,-43.457,2.441
1789994151.056161,11.719,-40.039,-40.527,4.395
1789994151.060036,16.602,-43.457,-41.016,5.859
1789994151.063910,1.953,-40.039,-43.457,-0.977
1789994151.067785,-3.418,-37.109,-37.598,8.301
1789994151.071660,6.348,-33.691,-32.715,4.883
1789994151.075535,5.859,-33.691,-38.086,-14.160
1789994151.079714,-8.301,-40.039,-41.504,-30.273
1789994151.083589,-13.672,-41.992,-43.457,-22.949
1789994151.087464,-2.441,-39.551,-45.898,-10.254
1789994151.091339,7.812,-39.062,-42.480,-11.719
1789994151.095214,-1.465,-36.133,-35.645,-12.695
1789994151.099089,-11.719,-33.691,-27.832,-13.672
1789994151.102964,-8.789,-36.621,-26.367,-9.277
1789994151.106838,-1.465,-38.086,-31.738,-8.789
1789994151.110713,-4.395,-30.762,-27.832,-13.184
1789994151.114588,-16.602,-29.785,-29.785,-19.043
1789994151.118463,-24.902,-31.250,-33.691,-29.297
1789994151.122338,-10.742,-35.156,-30.762,-34.180
1789994151.126482,1.465,-40.039,-32.227,-32.715
1789994151.130357,-8.789,-39.062,-35.156,-20.508
1789994151.134232,-17.578,-40.527,-33.691,-19.043
1789994151.138107,-5.371,-35.156,-25.391,-11.719
1789994151.141982,6.348,-27.832,-30.762,-9.766
1789994151.145857,-11.230,-24.414,-41.504,-24.902
1789994151.149732,-14.160,-25.879,-35.645,-11.719
1789994151.153607,-0.488,-35.645,-36.621,0.000
1789994151.157482,10.742,-38.574,-45.410,-15.137
1789994151.161357,8.789,-33.203,-47.852,-24.902
1789994151.165232,-7.324,-27.832,-44.434,-17.578
1789994151.169107,-3.418,-23.926,-38.574,-10.742
1789994151.173479,10.254,-22.461,0.000,-14.160
1789994151.177354,10.742,-20.996,0.000,-17.578
1789994151.181230,-11.719,-21.484,0.000,-23.926
1789994151.185105,-31.738,-23.926,0.000,-34.668
1789994151.188980,-23.926,-28.320,0.000,-25.391
1789994151.192855,-15.137,-31.250,0.000,-36.621
1789994151.196731,-27.832,-33.691,0.000,-56.641
1789994151.200606,-34.668,-32.715,0.000,-45.410
1789994151.204481,-27.832,-29.785,0.000,-40.527
1789994151.208356,-31.250,-36.133,0.000,-35.645
1789994151.212232,-41.016,-31.250,0.000,-39.551
1789994151.216107,-48.340,-33.203,0.000,-54.688
1789994151.220436,-40.527,-38.574,-42.480,-44.434
1789994151.224311,-26.367,-33.691,-42.480,-33.203
1789994151.228187,-28.320,-30.273,-41.504,-39.551
1789994151.232062,-34.180,-35.156,-37.598,-37.598
1789994151.235938,-22.461,-35.156,-39.062,-19.043
1789994151.239813,-11.719,-28.809,-33.691,-16.113
1789994151.243689,-23.926,-27.344,-30.273,-31.250
1789994151.247564,-33.203,-28.809,-29.785,-40.039
1789994151.251440,-33.203,-33.203,-32.715,-33.203
1789994151.255315,-17.090,-29.785,-33.691,-13.184
1789994151.259191,-8.301,-27.832,-35.156,-23.926
1789994151.263066,-23.438,-31.738,-41.016,-34.668
1789994151.267350,-29.297,-29.785,-38.574,-27.832
1789994151.271226,-17.578,-32.227,-31.738,-15.625
1789994151.275102,-8.789,-35.156,-27.344,0.488
1789994151.278977,-20.996,-39.551,-27.832,-5.859
1789994151.282853,-38.574,-39.551,-31.250,-29.297
1789994151.286729,-30.273,-30.273,-30.762,-28.809
1789994151.290604,-20.020,-30.762,-37.598,-36.133
1789994151.294480,-29.297,-35.645,-41.504,-52.246
1789994151.298356,-39.551,-38.574,-43.945,-45.410
1789994151.302232,-37.598,-40.527,-44.434,-37.598
1789994151.306107,-27.832,-46.387,-44.434,-40.527
1789994151.309983,-22.461,-41.016,-44.434,-43.457
1789994151.314259,-35.156,-35.156,-41.016,-43.457
1789994151.318135,-36.621,-33.203,-42.480,-35.156
1789994151.322011,-20.020,-28.809,-45.410,-31.250
1789994151.325886,-9.766,-26.367,-43.945,-35.645
1789994151.329762,-23.438,-24.414,-45.410,-42.480
1789994151.333638,-39.551,-25.879,-42.969,-48.828
1789994151.337514,-23.926,-28.809,-32.227,-39.062
1789994151.341390,-4.395,-30.273,-36.621,-26.855
1789994151.345266,-10.742,-30.762,-46.387,-15.625
1789994151.349142,-31.250,-23.438,-40.527,-39.062
1789994151.353018,-34.668,-23.926,-38.086,-43.945
1789994151.356894,-30.273,-28.809,-38.574,-16.113
1789994151.361121,-28.809,-26.367,-32.227,-25.879
1789994151.364998,-37.598,-35.645,-38.086,-43.457
1789994151.368874,-41.992,-46.875,-46.387,-45.898
1789994151.372750,-35.645,-43.945,-38.574,-43.457
1789994151.376626,-43.945,-39.551,-31.738,-35.156
1789994151.380502,-53.711,-36.133,-29.297,-41.016
1789994151.384378,-51.758,-37.109,-31.250,-44.434
1789994151.388254,-41.016,-38.086,-30.762,-23.438
1789994151.392130,-28.809,-34.668,-27.344,-15.625
1789994151.396006,-32.227,-32.227,-26.367,-28.320
1789994151.399882,-41.504,-31.738,-21.484,-41.992
1789994151.403758,-34.668,-29.785,-25.879,-44.434
1789994151.407964,-24.902,-31.250,-30.273,-29.785
1789994151.411840,-35.645,-34.180,-32.227,-35.156
1789994151.415716,-38.086,-32.227,-40.527,-39.062
1789994151.419593,-36.133,-28.320,-37.109,-23.926
1789994151.423469,-29.785,-29.785,-29.785,-24.414
1789994151.427345,-26.855,-32.715,-31.738,-34.668
1789994151.431221,-39.551,-29.297,-35.156,-37.598
1789994151.435097,-31.738,-28.320,-32.715,-28.809
1789994151.438974,-20.508,-30.273,-30.273,-36.621
1789994151.442850,-25.391,-28.320,-35.645,-57.129
1789994151.446726,-41.992,-25.391,-39.551,-57.129
1789994151.450602,-50.781,-24.902,-36.621,-50.293
1789994151.454765,-41.016,-28.320,-30.273,-36.621
1789994151.458641,-37.109,-30.762,-35.645,-35.156
1789994151.462518,-48.828,-29.785,-37.598,-45.898
1789994151.466394,-62.500,-35.156,-33.691,-42.480
1789994151.470270,-50.781,-40.527,-32.227,-39.062
1789994151.474147,-33.691,-42.969,-25.391,-43.457
1789994151.478023,-48.340,-41.504,-28.809,-40.039
1789994151.481899,-61.523,-35.156,-32.715,-37.598
1789994151.485776,-52.734,-32.227,-27.344,-47.852
1789994151.489652,-37.598,-32.715,-26.855,-35.645
1789994151.493528,-27.832,-28.320,-17.090,-28.320
1789994151.497405,-29.785,-25.391,-12.207,-42.969
1789994151.501523,-40.527,-29.785,-24.414,-38.574
1789994151.505399,-35.156,-35.156,-27.832,-33.691
1789994151.509276,-26.367,-38.574,-23.926,-36.621
1789994151.513152,-36.621,-33.691,-30.762,-37.109
1789994151.517029,-42.969,-31.738,-35.156,-41.504
1789994151.520905,-28.809,-34.668,-32.227,-44.922
1789994151.524781,-28.809,-40.039,-32.715,-37.598
1789994151.528658,-32.227,-35.645,-31.738,-37.109
1789994151.532534,-39.062,-25.879,-24.902,-42.969
1789994151.536411,-45.898,-24.902,-20.508,-50.781
1789994151.540287,-34.668,-25.879,-26.367,-53.223
1789994151.544164,-45.898,-35.645,-37.109,-54.199
1789994151.548505,-64.453,-42.969,0.000,-64.941
1789994151.552382,-63.965,-38.574,0.000,-67.871
1789994151.556258,-36.621,-34.180,0.000,-53.223
1789994151.560135,-31.250,-32.715,0.000,-52.246
1789994151.564012,-49.805,-31.250,0.000,-51.758
1789994151.567888,-49.805,-35.645,0.000,-44.434
1789994151.571765,-45.410,-43.945,0.000,-48.828
1789994151.575642,-35.645,-41.016,0.000,-50.293
1789994151.579519,-36.621,-34.180,0.000,-50.293
1789994151.583395,-52.734,-35.156,0.000,-50.781
1789994151.587272,-49.316,-40.527,0.000,-50.781
1789994151.591149,-32.227,-41.992,0.000,-35.156
1789994151.595446,-38.086,-34.180,-21.973,-34.668
1789994151.599323,-54.688,-31.250,-31.738,-47.363
1789994151.603200,-47.363,-34.180,-31.738,-39.551
1789994151.607077,-26.855,-36.621,-28.809,-34.180
1789994151.610954,-28.809,-31.738,-30.762,-32.715
1789994151.614831,-48.340,-27.832,-35.645,-35.156
1789994151.618707,-48.340,-31.250,-37.109,-34.180
1789994151.622584,-32.715,-31.738,-34.180,-32.715
1789994151.626461,-29.785,-29.785,-33.691,-37.598
1789994151.630338,-36.621,-33.203,-33.691,-42.969
1789994151.634215,-38.086,-28.320,-29.785,-41.504
1789994151.638092,-24.414,-23.438,-25.391,-34.668
1789994151.642402,-20.020,-27.344,-31.250,-36.621
1789994151.646279,-32.227,-24.902,-32.227,-30.762
1789994151.650156,-38.574,-22.949,-36.621,-15.137
1789994151.654034,-25.879,-23.926,-41.992,-14.160
1789994151.657911,-19.531,-28.320,-29.785,-19.043
1789994151.661788,-46.875,-27.832,-24.902,-49.805
1789994151.665665,-65.430,-23.438,-30.273,-67.871
1789994151.669542,-77.637,-25.391,-28.809,-77.148
1789994151.673419,-85.938,-31.738,-23.438,-100.098
1789994151.677296,-94.727,-31.738,-27.832,-104.980
1789994151.681173,-124.512,-28.320,-34.180,-112.305
1789994151.685050,-144.531,-27.832,-37.598,-131.836
1789994151.689291,-148.438,-32.715,-40.527,-160.645
1789994151.693168,-153.320,-30.273,-41.504,-169.434
1789994151.697045,-155.273,-22.461,-37.598,-169.434
1789994151.700922,-159.668,-24.902,-38.086,-170.410
1789994151.704800,-157.715,-33.203,-46.875,-166.992
1789994151.708677,-135.254,-29.785,-52.734,-158.691
1789994151.712554,-128.418,-28.320,-47.363,-145.508
1789994151.716431,-131.836,-29.785,-41.016,-138.184
1789994151.720309,-110.840,-29.297,-37.598,-122.070
1789994151.724186,-92.773,-34.668,-35.645,-113.770
1789994151.728063,-93.262,-38.086,-38.086,-115.723
1789994151.731941,-97.168,-40.039,-41.992,-112.305
1789994151.736140,-101.074,-42.969,-37.598,-101.562
1789994151.740018,-89.355,-45.898,-30.762,-98.633
1789994151.743895,-77.148,-37.109,-30.273,-97.168
1789994151.747772,-78.613,-32.227,-25.879,-86.426
1789994151.751650,-81.543,-37.598,-21.973,-82.031
1789994151.755527,-75.195,-38.086,-28.809,-76.172
1789994151.759405,-65.918,-34.180,-34.668,-63.477
1789994151.763282,-69.824,-34.668,-39.062,-64.941
1789994151.767159,-79.102,-38.574,-37.598,-71.777
1789994151.771037,-69.824,-37.598,-32.227,-62.012
1789994151.774914,-49.316,-39.551,-31.738,-52.734
1789994151.778791,-47.852,-43.945,-30.762,-47.852
1789994151.782985,-53.711,-41.016,-26.855,-47.363
1789994151.786862,-46.875,-39.551,-35.156,-43.945
1789994151.790740,-36.133,-33.203,-32.715,-20.996
1789994151.794617,-36.133,-27.832,-25.391,-21.484
1789994151.798495,-53.223,-31.250,-33.691,-39.062
1789994151.802372,-49.805,-33.691,-35.156,-47.363
1789994151.806250,-23.926,-34.180,-32.227,-36.621
1789994151.810127,-23.438,-29.297,-32.715,-23.438
1789994151.814005,-39.551,-29.297,-30.762,-38.086
1789994151.817883,-41.504,-34.668,-34.180,-44.434
1789994151.821760,-35.645,-42.480,-34.668,-24.414
1789994151.825638,-36.133,-47.852,-33.203,-22.461
1789994151.829808,-41.504,-40.039,-33.203,-38.574
1789994151.833686,-43.945,-34.180,-28.809,-36.621
1789994151.837564,-42.480,-37.109,-28.320,-31.250
1789994151.841441,-38.086,-34.180,-35.645,-46.875
1789994151.845319,-36.621,-32.227,-29.785,-39.062
1789994151.849196,-41.504,-33.203,-24.902,-31.250
1789994151.853074,-41.016,-35.645,-31.738,-31.250
1789994151.856952,-28.320,-35.645,-35.156,-24.902
1789994151.860829,-25.879,-36.133,-36.621,-37.598
1789994151.864707,-34.668,-36.133,-37.109,-42.969
1789994151.868585,-37.598,-34.180,-43.945,-52.246
1789994151.872463,-32.715,-38.574,-40.039,-51.270
1789994151.876616,-23.926,-38.086,-33.691,-23.926
1789994151.880494,-27.832,-39.062,-38.574,-20.508
1789994151.884372,-41.992,-47.852,-42.969,-39.062
1789994151.888250,-42.480,-47.363,-39.062,-25.391
1789994151.892127,-28.809,-37.598,-33.691,-25.391
1789994151.896005,-27.344,-35.645,-32.227,-35.156
1789994151.899883,-36.621,-39.551,-36.133,-29.785
1789994151.903761,-33.203,-35.156,-32.227,-36.133
1789994151.907639,-17.578,-36.133,-34.668,-34.668
1789994151.911516,-20.996,-33.691,-37.109,-30.273
1789994151.915394,-32.227,-33.203,-29.785,-34.668
1789994151.919272,-20.508,-37.598,-38.086,-31.738
1789994151.923816,-9.277,-36.133,-38.086,-28.320
1789994151.927694,-28.320,-37.109,-31.250,-47.852
1789994151.931572,-45.410,-37.598,-34.180,-51.270
1789994151.935450,-42.480,-35.645,-25.391,-36.621
1789994151.939328,-22.461,-38.086,-18.555,-23.926
1789994151.943206,-17.578,-40.527,-26.367,-30.762
1789994151.947084,-40.039,-44.922,-29.297,-40.039
1789994151.950962,-41.992,-51.758,-29.785,-33.203
1789994151.954840,-27.344,-48.340,-30.273,-38.574
1789994151.958719,-19.531,-50.293,-31.250,-41.992
1789994151.962597,-28.320,-53.223,-28.320,-29.297
1789994151.966475,-39.062,-41.992,-22.461,-15.137
1789994151.970992,-39.062,-37.598,-24.414,-10.742
1789994151.974871,-28.320,-38.574,-31.250,-26.855
1789994151.978749,-21.973,-35.645,-33.691,-40.527
1789994151.982627,-27.344,-34.668,-33.203,-29.785
1789994151.986506,-22.461,-40.527,-40.527,-13.184
1789994151.990384,-17.578,-44.922,-41.504,-17.090
1789994151.994262,-20.508,-40.039,-33.691,-19.043
1789994151.998141,-33.203,-38.574,-35.156,-24.414
1789994152.002019,-39.551,-44.922,-40.527,-38.086
1789994152.005898,-31.250,-46.387,-41.016,-44.922
1789994152.009776,-22.949,-40.039,-34.668,-33.691
1789994152.013654,-19.043,-36.133,-24.902,-26.367
1789994152.017899,-22.949,-30.762,-20.996,-23.438
1789994152.021778,-30.273,-29.297,-26.855,-20.508
1789994152.025656,-19.043,-33.691,-29.785,-23.438
1789994152.029535,-21.484,-32.715,-34.180,-19.531
1789994152.033413,-44.922,-32.227,-33.691,-27.344
1789994152.037292,-33.691,-33.203,-33.203,-33.203
1789994152.041170,-21.973,-36.133,-38.574,-35.645
1789994152.045049,-25.391,-36.621,-34.668,-30.762
1789994152.048927,-39.062,-35.645,-36.621,-23.926
1789994152.052806,-49.316,-40.527,-39.062,-28.320
1789994152.056684,-27.344,-39.551,-25.879,-17.578
1789994152.060563,-18.066,-34.180,-22.949,-13.184
1789994152.064790,-30.762,-32.715,-29.297,-22.949
1789994152.068669,-40.039,-29.785,-27.832,-26.367
1789994152.072548,-37.109,-28.320,-26.855,-22.949
1789994152.076426,-26.855,-35.156,-36.621,-11.719
1789994152.080305,-32.227,-35.645,-33.203,-12.207
1789994152.084184,-41.504,-33.203,-22.949,-20.508
1789994152.088063,-27.344,-31.738,-22.461,-25.879
1789994152.091941,-10.254,-28.809,-26.855,-28.320
1789994152.095820,-24.414,-33.203,-28.809,-20.508
1789994152.099699,-42.480,-33.203,-31.250,-25.879
1789994152.103577,-40.527,-29.785,-34.668,-36.621
1789994152.107456,-23.926,-31.250,-30.273,-36.133
1789994152.111650,-17.090,-22.461,-26.367,-42.480
1789994152.115529,-29.297,-24.902,-30.273,-41.992
1789994152.119407,-45.410,-41.016,-36.621,-34.180
1789994152.123286,-42.480,-42.969,-31.250,-37.109
1789994152.127165,-27.344,-38.574,-30.273,-37.598
1789994152.131044,-30.762,-41.504,-29.297,-37.109
1789994152.134923,-46.387,-38.086,-27.832,-42.969
1789994152.138802,-47.363,-39.551,-27.344,-35.156
1789994152.142680,-39.062,-42.480,-21.973,-23.926
1789994152.146559,-41.992,-36.621,-24.902,-25.391
1789994152.150438,-54.199,-39.551,-24.414,-31.250
1789994152.154317,-50.293,-40.039,-21.973,-34.180
1789994152.158478,-39.551,-41.992,-27.832,-38.086
1789994152.162357,-41.504,-46.875,-26.367,-43.457
1789994152.166236,-52.734,-45.410,-25.391,-41.504
1789994152.170115,-46.387,-36.133,-24.414,-37.109
1789994152.173994,-26.855,-33.203,-27.344,-27.832
1789994152.177873,-20.020,-40.039,-35.645,-23.926
1789994152.181752,-32.227,-33.691,-36.133,-20.508
1789994152.185631,-34.668,-25.879,-34.180,-20.508
1789994152.189510,-28.809,-28.809,-34.180,-31.738
1789994152.193389,-30.762,-34.668,-40.039,-33.203
1789994152.197268,-31.738,-37.598,-45.898,-30.273
1789994152.201147,-34.668,-37.109,-41.992,-22.461
1789994152.205274,-31.250,-31.250,-36.133,-22.949
1789994152.209153,-17.090,-27.344,-34.668,-22.461
1789994152.213032,-8.789,-30.762,-31.250,-13.184
1789994152.216911,-14.648,-38.086,-33.203,-14.648
1789994152.220790,-26.855,-35.645,-30.273,-18.066
1789994152.224669,-32.227,-33.203,-33.203,-37.598
1789994152.228549,-24.902,-36.621,-33.203,-21.484
1789994152.232428,-24.414,-37.598,-34.668,-2.441
1789994152.236307,-26.855,-41.992,-36.133,-12.695
1789994152.240186,-20.508,-48.828,-27.832,1.953
1789994152.244065,-12.207,-47.852,-24.902,12.207
1789994152.247944,-10.742,-46.387,-27.344,1.953
1789994152.252042,-16.113,-46.875,-22.949,-1.465
1789994152.255921,-12.207,-43.945,-12.207,-0.488
1789994152.259800,2.930,-39.062,-10.742,-6.836
1789994152.263679,-4.883,-36.621,-18.066,-4.883
1789994152.267558,-17.578,-42.480,-29.785,-7.324
1789994152.271438,-14.648,-44.434,-27.832,-7.324
1789994152.275317,-7.324,-33.691,-23.926,0.488
1789994152.279196,-8.789,-30.762,-25.391,-9.766
1789994152.283075,-24.902,-31.250,-19.531,-21.973
1789994152.286954,-21.973,-31.250,-13.672,-15.625
1789994152.290833,-8.301,-34.180,-18.555,1.953
1789994152.294713,-11.230,-38.574,-28.320,-8.789
1789994152.299011,-23.926,-43.457,-20.996,-24.902
1789994152.302890,-30.273,-41.992,-8.789,-20.020
1789994152.306769,-16.602,-39.551,-6.348,-16.602
1789994152.310649,-10.742,-34.668,-15.625,-22.949
1789994152.314528,-30.273,-34.180,-20.996,-20.996
1789994152.318408,-41.504,-37.598,-26.367,-3.906
1789994152.322287,-33.691,-38.574,-35.645,-5.859
1789994152.326166,-21.484,-39.062,-25.879,-4.395
1789994152.330045,-27.344,-34.180,-19.043,-1.465
1789994152.333925,-33.203,-34.180,-26.367,-6.836
1789994152.337804,-31.738,-40.527,-28.320,-8.789
1789994152.341683,-31.250,-43.945,-28.320,-8.301
1789994152.345957,-29.297,-42.480,-31.738,-9.277
1789994152.349836,-39.062,-43.945,-37.109,-19.531
1789994152.353716,-41.504,-44.434,-41.016,-13.672
1789994152.357595,-27.832,-46.387,-41.504,-5.371
1789994152.361475,-20.996,-43.945,-38.574,-17.090
1789994152.365354,-34.668,-48.828,-43.945,-26.855
1789994152.369234,-38.086,-52.246,-42.480,-30.762
1789994152.373113,-26.855,-41.992,-32.715,-31.250
1789994152.376993,-21.973,-32.715,-38.086,-32.227
1789994152.380872,-30.762,-31.250,-50.293,-25.391
1789994152.384752,-37.598,-34.668,-48.340,-25.391
1789994152.388631,-26.855,-30.762,-40.039,-34.668
1789994152.392868,-19.043,-24.902,-45.410,-17.578
1789994152.396747,-23.438,-29.785,-50.781,-11.719
1789994152.400627,-20.020,-33.691,-39.062,0.000
1789994152.404507,-19.043,-25.391,-37.598,-2.930
1789994152.408386,-37.109,-22.461,-51.270,-47.363
1789994152.412266,-44.434,-29.297,-54.199,-46.387
1789994152.416146,-61.523,-27.832,-47.852,-45.410
1789994152.420025,-67.871,-20.020,-41.504,-64.941
1789994152.423905,-51.270,-20.996,-46.875,-60.547
1789994152.427785,-67.383,-29.297,-57.129,-76.172
1789994152.431664,-98.633,-31.250,-57.617,-97.656
1789994152.435544,-104.004,-23.926,-58.594,-95.215
1789994152.439748,-90.332,-19.531,-57.129,-81.055
1789994152.443628,-76.660,-17.090,-54.688,-82.031
1789994152.447507,-83.496,-19.531,-61.523,-88.379
1789994152.451387,-91.309,-24.902,-62.500,-86.426
1789994152.455267,-67.871,-21.484,-57.617,-68.848
1789994152.459147,-48.340,-15.137,-53.223,-61.035
1789994152.463027,-59.570,-20.508,-50.293,-71.289
1789994152.466906,-62.500,-15.625,-51.270,-62.988
1789994152.470786,-50.781,-15.137,-48.828,-50.293
1789994152.474666,-41.504,-20.508,-43.457,-52.246
1789994152.478546,-40.039,-14.648,-43.457,-55.664
1789994152.482425,-57.129,-19.043,-47.852,-46.387
1789994152.486595,-64.453,-23.438,-48.828,-52.246
1789994152.490474,-48.828,-20.508,-52.246,-59.082
1789994152.494354,-34.668,-20.508,-56.641,-47.852
1789994152.498234,-44.922,-23.438,-43.457,-39.551
1789994152.502114,-49.805,-25.879,-39.551,-43.945
1789994152.505994,-43.945,-21.484,-42.969,-54.688
1789994152.509874,-33.691,-23.926,-43.457,-56.152
1789994152.513754,-30.273,-26.367,-45.410,-41.016
1789994152.517634,-49.805,-20.996,-42.969,-35.645
1789994152.521514,-53.223,-26.367,-42.480,-34.668
1789994152.525394,-36.621,-25.879,-41.504,-23.926
1789994152.529274,-33.691,-24.414,-40.527,-29.785
1789994152.533428,-47.363,-26.855,-41.504,-36.621
1789994152.537308,-44.922,-26.855,-48.828,-41.016
1789994152.541188,-25.391,-26.367,-51.270,-27.832
1789994152.545068,-19.043,-28.809,-43.457,-24.414
1789994152.548948,-34.180,-31.738,-45.898,-42.969
1789994152.552828,-37.109,-32.227,-52.246,-46.387
1789994152.556708,-23.926,-31.250,-50.293,-39.062
1789994152.560588,-23.438,-25.879,-47.852,-43.945
1789994152.564468,-39.551,-27.344,-42.480,-48.340
1789994152.568348,-41.504,-29.785,-37.109,-43.457
1789994152.572228,-27.344,-23.438,-41.504,-38.086
1789994152.576108,-13.672,-26.367,-44.922,-27.832
1789994152.580235,-20.020,-33.203,-42.969,-18.066
1789994152.584115,-34.180,-34.180,-42.969,-22.461
1789994152.587995,-36.621,-34.668,-41.504,-30.273
1789994152.591875,-26.367,-33.203,-41.992,-26.367
1789994152.595755,-31.738,-38.086,-40.527,-33.203
1789994152.599636,-45.410,-37.598,-41.992,-45.410
1789994152.603516,-30.762,-28.320,-40.039,-37.598
1789994152.607396,-13.184,-27.832,-38.086,-21.484
1789994152.611276,-11.719,-27.344,-37.598,-8.301
1789994152.615156,-25.391,-33.203,-33.691,-29.785
1789994152.619036,-31.250,-31.738,-35.645,-38.086
1789994152.622916,-15.137,-23.438,-35.645,-19.043
1789994152.627019,-18.066,-25.879,-36.621,-22.461
1789994152.630899,-27.344,-32.715,-35.156,-28.809
1789994152.634779,-32.227,-32.227,-32.227,-29.297
1789994152.638660,-31.738,-24.414,-37.598,-31.738
1789994152.642540,-19.043,-25.391,-43.945,-28.320
1789994152.646420,-28.809,-31.738,-39.551,-25.879
1789994152.650300,-44.434,-31.738,-41.016,-25.879
