timestamp,TP9,AF7,AF8,TP10
1789996884.415261,0.000,0.000,-0.488,0.000
1789996884.419120,-0.488,-0.488,0.000,-0.488
1789996884.422980,-0.977,-1.953,-0.488,0.000
1789996884.426839,1.465,3.906,-1.465,-0.488
1789996884.430699,-10.742,-23.926,9.766,-3.418
1789996884.434558,-25.879,-52.246,-11.719,0.000
1789996884.438418,-32.715,-43.457,-31.250,-2.441
1789996884.442277,-42.969,-58.594,-18.555,-12.695
1789996884.446137,-31.738,-64.941,-15.625,-12.695
1789996884.449997,-29.785,-54.199,-16.113,-4.883
1789996884.453856,-47.852,-50.781,-13.672,-15.625
1789996884.457716,-48.828,-56.641,-19.531,-19.043
1789996884.460731,-30.273,-58.105,-17.090,-11.719
1789996884.464520,-16.113,-49.805,-18.066,-16.602
1789996884.468310,-27.344,-40.527,-20.020,-19.043
1789996884.472099,-27.832,-35.645,-16.602,-19.043
1789996884.475888,-19.531,-41.016,-17.090,-4.395
1789996884.479677,-15.137,-38.574,-22.461,4.395
1789996884.483466,-29.785,-30.762,-21.484,-3.906
1789996884.487256,-50.293,-31.738,-31.250,-22.461
1789996884.491045,-35.645,-39.551,-55.176,-26.855
1789996884.494834,-14.160,-43.457,-45.898,-31.738
1789996884.498623,-28.320,-45.410,-37.109,-34.180
1789996884.502412,-46.875,-47.852,-35.645,-30.273
1789996884.503764,-43.457,-42.969,-35.645,-26.855
1789996884.507452,-26.367,-39.551,-28.809,-13.184
1789996884.511139,-32.715,-40.039,-20.020,-16.602
1789996884.514827,-47.363,-33.691,-26.367,-19.531
1789996884.518514,-48.340,-35.156,-41.992,-20.508
1789996884.522202,-42.480,-44.922,-41.504,-22.949
1789996884.525890,-24.414,-33.691,-33.203,-13.672
1789996884.529577,-29.785,-25.879,-31.738,-26.855
1789996884.533265,-45.898,-33.691,-32.227,-34.180
1789996884.536953,-34.180,-36.621,-45.898,-30.273
1789996884.540640,-22.461,-37.109,-54.199,-36.133
1789996884.544328,-39.062,-41.504,-38.086,-46.387
1789996884.544112,-58.594,-40.527,-50.293,-51.270
1789996884.547691,-43.457,-40.527,-52.734,-37.598
1789996884.551270,-24.902,-40.039,-42.969,-29.297
1789996884.554849,-31.250,-28.809,-44.922,-37.109
1789996884.558429,-42.480,-30.273,-46.387,-49.805
1789996884.562008,-32.715,-33.691,-43.457,-46.875
1789996884.565587,-17.578,-30.762,-41.016,-31.738
1789996884.569166,-21.973,-44.922,-38.086,-22.461
1789996884.572745,-0.488,-52.246,-29.297,7.812
1789996884.576324,28.809,-25.879,-29.785,18.066
1789996884.579904,0.977,-8.301,-48.828,-20.996
1789996884.583483,-39.551,-15.137,-55.664,-42.969
1789996884.584563,-58.105,-14.648,-58.594,-42.480
1789996884.588090,-50.293,-9.766,-69.824,-37.598
1789996884.591618,-32.715,-7.812,-73.242,-34.668
1789996884.595145,-19.043,1.465,-75.195,-40.039
1789996884.598672,-33.203,4.883,-82.520,-47.363
1789996884.602199,-50.293,-6.348,-74.707,-66.406
1789996884.605726,-34.668,3.418,-87.891,-64.453
1789996884.609253,-11.719,18.066,-106.934,-50.293
1789996884.612781,-12.695,13.672,-94.727,-63.477
1789996884.616308,-18.555,15.137,-93.262,-56.641
1789996884.619835,-22.461,19.531,-102.051,-66.406
1789996884.623362,-23.438,15.137,-104.492,-79.102
1789996884.624609,-18.555,13.672,-99.121,-63.477
1789996884.628098,-24.414,10.254,-93.262,-44.434
1789996884.631587,-34.180,3.418,-98.633,-59.570
1789996884.635077,-20.508,-1.953,-94.727,-68.359
1789996884.638566,-9.277,-9.277,-91.309,-60.547
1789996884.642055,-31.250,-11.230,-92.773,-70.801
1789996884.645544,-34.668,-3.418,-76.660,-68.848
1789996884.649033,-28.320,3.906,-73.730,-38.086
1789996884.652522,-28.320,-6.348,-58.105,-30.273
1789996884.656011,-23.926,-17.578,-68.359,-43.457
1789996884.659500,-27.832,-12.695,-75.684,-34.668
1789996884.662990,-24.414,-8.301,-59.082,-20.020
1789996884.666476,0.000,-7.812,-65.918,-13.672
1789996884.669965,0.000,-9.277,-71.777,-35.645
1789996884.673454,0.000,-4.883,-69.824,-51.270
1789996884.676943,0.000,-2.930,-67.383,-38.574
1789996884.680432,0.000,-15.137,-67.383,-29.297
1789996884.683921,0.000,-19.043,-66.406,-32.715
1789996884.687410,0.000,-20.996,-64.941,-31.250
1789996884.690899,0.000,-28.320,-60.547,-35.156
1789996884.694389,0.000,-24.414,-56.152,-30.273
1789996884.697878,0.000,-23.438,-48.340,-24.902
1789996884.701367,0.000,-11.230,-48.340,-20.020
1789996884.704856,0.000,-10.254,-41.016,-19.531
1789996884.702949,-2.441,-19.531,-35.156,-28.320
1789996884.706374,-6.836,-15.137,-52.734,-20.508
1789996884.709799,-25.391,-25.391,-61.523,-26.367
1789996884.713224,-19.043,-31.250,-54.688,-41.016
1789996884.716649,-11.719,-25.391,-50.293,-39.062
1789996884.720073,-12.695,-30.273,-50.293,-30.273
1789996884.723498,-22.949,-24.902,-48.340,-27.344
1789996884.726923,-26.855,-21.484,-49.805,-29.785
1789996884.730348,-12.695,-31.250,-48.828,-31.738
1789996884.733773,-7.812,-25.879,-50.293,-29.297
1789996884.737198,-8.789,-18.555,-50.781,-29.785
1789996884.740623,-12.207,-18.066,-39.551,-28.809
1789996884.744738,-31.250,-20.508,-42.969,-39.062
1789996884.748170,-14.648,-19.043,-46.875,-35.156
1789996884.751602,9.277,-14.160,-29.785,-9.277
1789996884.755034,3.906,-21.484,-32.227,-9.766
1789996884.758466,-16.113,-30.273,-25.391,-32.715
1789996884.761899,-18.066,-33.203,-30.273,-41.992
1789996884.765331,-9.277,-32.227,-56.641,-23.438
1789996884.768763,-28.809,-27.344,-40.527,-32.715
1789996884.772195,-38.086,-20.020,-38.086,-46.875
1789996884.775627,-17.578,-19.531,-42.480,-33.203
1789996884.779059,-6.836,-24.414,-41.504,-31.738
1789996884.782491,-15.625,-21.484,-48.828,-36.621
1789996884.789439,-35.156,-31.250,-49.805,-39.551
1789996884.792903,-44.434,-35.156,-48.828,-40.039
1789996884.796368,-37.109,-35.156,-51.758,-34.668
1789996884.799833,-26.855,-35.645,-50.781,-36.621
1789996884.803297,-36.621,-32.227,-45.898,-45.410
1789996884.806762,-45.410,-29.297,-39.551,-44.922
1789996884.810226,-32.715,-29.297,-38.086,-38.574
1789996884.813691,-24.902,-35.645,-52.246,-36.133
1789996884.817156,-43.945,-40.039,-41.992,-40.527
1789996884.820620,-41.504,-31.250,-21.484,-35.645
1789996884.824085,-20.508,-18.066,-37.598,-23.438
1789996884.827549,-18.555,-22.461,-41.992,-22.949
1789996884.832508,-25.879,-23.926,-39.062,-27.832
1789996884.835985,-39.551,-22.461,-34.180,-30.273
1789996884.839462,-39.551,-26.367,-29.785,-26.855
1789996884.842939,-22.949,-25.391,-33.691,-29.297
1789996884.846416,-24.902,-32.715,-41.504,-31.250
1789996884.849894,-42.480,-38.086,-34.668,-28.809
1789996884.853371,-45.898,-32.715,-40.039,-39.551
1789996884.856848,-38.086,-33.203,-48.828,-43.457
1789996884.860325,-28.809,-39.062,-44.434,-39.551
1789996884.863802,-41.016,-32.227,-42.969,-37.109
1789996884.867279,-56.641,-28.320,-42.969,-36.133
1789996884.870756,-54.199,-42.969,-40.039,-37.109
1789996884.877753,-48.340,-47.363,-42.480,-39.062
1789996884.881256,-46.387,-43.457,-32.227,-33.203
1789996884.884760,-59.570,-48.340,-19.043,-38.574
1789996884.888264,-46.875,-40.527,-36.621,-41.504
1789996884.891768,-22.949,-31.738,-35.645,-33.691
1789996884.895271,-26.855,-28.809,-40.039,-28.320
1789996884.898775,-31.250,-35.645,-49.316,-15.137
1789996884.902279,-54.199,-46.387,-34.668,-20.020
1789996884.905782,-66.406,-44.922,-30.762,-43.945
1789996884.909286,-49.316,-51.758,-33.691,-30.762
1789996884.912790,-57.129,-50.781,-26.367,-30.273
1789996884.916294,-60.547,-53.711,-31.250,-42.969
1789996884.923179,-44.434,-57.129,-29.785,-38.574
1789996884.926707,-34.668,-47.363,-25.879,-34.668
1789996884.930234,-45.898,-45.898,-36.133,-37.109
1789996884.933761,-52.734,-42.480,-32.227,-44.434
1789996884.937288,-36.133,-32.227,-35.156,-35.645
1789996884.940815,-24.414,-36.621,-18.555,-27.832
1789996884.944343,-41.504,-43.457,-17.090,-41.016
1789996884.947870,-55.664,-44.434,-45.898,-53.711
1789996884.951397,-47.363,-35.645,-34.668,-49.805
1789996884.954924,-28.320,-32.715,-25.879,-37.109
1789996884.958452,-26.855,-30.273,-21.484,-31.738
1789996884.961979,-54.199,-26.367,-22.461,-49.805
1789996884.968519,-68.848,-28.320,-32.715,-58.594
1789996884.972066,-70.312,-28.320,-36.621,-67.871
1789996884.975613,-62.012,-24.902,-24.902,-65.430
1789996884.979159,-76.172,-14.160,-12.207,-60.547
1789996884.982706,-96.680,-9.277,-8.789,-82.031
1789996884.986252,-100.586,0.488,-8.301,-96.191
1789996884.989799,-98.633,17.090,-4.395,-106.445
1789996884.993345,-120.605,25.879,10.254,-135.254
1789996884.996892,-150.391,28.809,16.113,-143.555
1789996885.000438,-157.715,46.387,-6.348,-145.996
1789996885.003985,-159.180,54.688,-5.859,-168.457
1789996885.007531,-165.039,46.387,7.324,-170.898
1789996885.013994,-187.988,41.992,13.184,-174.316
1789996885.017558,-194.824,41.016,10.254,-192.871
1789996885.021122,-182.129,38.574,10.742,-193.359
1789996885.024686,-171.875,38.574,-0.488,-184.570
1789996885.028250,-172.852,32.227,-3.418,-175.781
1789996885.031813,-173.828,21.484,2.441,-165.527
1789996885.035377,-150.391,10.254,-0.488,-135.742
1789996885.038941,-126.953,3.418,-3.418,-108.398
1789996885.042505,-128.418,-10.742,-16.113,-104.492
1789996885.046069,-121.094,-17.578,-11.230,-103.027
1789996885.049633,-91.797,-18.555,-9.277,-93.750
1789996885.053197,-69.824,-20.020,-37.109,-76.660
1789996885.059679,-80.078,-24.414,-40.527,-79.590
1789996885.063259,-82.520,-43.945,-36.621,-79.102
1789996885.066839,-71.289,-62.012,-34.180,-71.289
1789996885.070420,-54.688,-53.223,-28.809,-55.176
1789996885.074000,-40.527,-42.480,-39.551,-43.945
1789996885.077580,-54.199,-46.875,-29.297,-44.922
1789996885.081160,-53.711,-52.734,-22.461,-46.875
1789996885.084740,-17.578,-54.199,-38.086,-20.508
1789996885.088320,-0.977,-47.852,-41.992,-3.906
1789996885.091900,-20.996,-43.457,-42.480,-13.672
1789996885.095480,-28.809,-51.758,-51.758,-22.461
1789996885.099060,-22.949,-62.988,-39.062,-27.832
1789996885.105186,-24.414,-62.500,-33.203,-33.203
1789996885.108779,-29.297,-49.805,-61.523,-38.086
1789996885.112372,-30.762,-55.664,-60.547,-31.250
1789996885.115966,-23.438,-59.570,-52.246,-14.648
1789996885.119559,-4.883,-58.105,-46.387,-7.324
1789996885.123152,-8.301,-55.664,-44.434,-12.207
1789996885.126746,-20.020,-57.617,-49.805,-13.184
1789996885.130339,-3.906,-59.082,-48.828,-5.371
1789996885.133933,8.789,-48.828,-39.062,-0.488
1789996885.137526,0.488,-49.805,-44.434,-5.371
1789996885.141119,-11.719,-54.199,-46.875,-6.836
1789996885.144713,-19.043,-61.523,-46.875,-8.789
1789996885.150716,-19.043,-68.848,-55.176,-12.207
1789996885.154321,-3.906,-61.035,-51.270,-4.883
1789996885.157926,-4.883,-59.570,-48.828,1.953
1789996885.161531,-6.836,-61.523,-50.781,-9.277
1789996885.165137,3.906,-77.148,-44.434,7.812
1789996885.168742,16.113,-81.543,-44.922,45.898
1789996885.172347,-4.395,-59.082,-50.781,26.367
1789996885.175952,-30.273,-51.270,-56.641,1.465
1789996885.179557,-19.531,-52.734,-56.641,-9.766
1789996885.183162,-9.766,-55.664,-56.152,-18.555
1789996885.186768,-3.906,-52.246,-58.105,-6.836
1789996885.190373,-12.695,-48.828,-59.082,-7.812
1789996885.196373,-6.348,-43.457,-63.965,-14.160
1789996885.199989,3.418,-46.875,-50.781,-12.207
1789996885.203605,-6.348,-52.246,-50.293,-19.043
1789996885.207221,-15.625,-48.828,-66.406,-17.578
1789996885.210838,-15.625,-52.734,-55.176,-12.695
1789996885.214454,5.859,-48.828,-56.152,-9.766
1789996885.218070,7.812,-42.969,-52.734,3.418
1789996885.221686,-24.902,-45.898,-50.293,-21.484
1789996885.225303,-21.484,-39.551,-52.246,-30.762
1789996885.228919,0.977,-40.527,-42.969,-12.207
1789996885.232535,3.418,-48.340,-46.875,-11.230
1789996885.236151,-24.414,-39.551,-50.293,-27.832
1789996885.241918,0.000,-32.715,-43.945,-25.391
1789996885.245544,0.000,-31.738,-34.668,-17.090
1789996885.249170,0.000,-30.762,-37.598,-20.020
1789996885.252795,0.000,-37.109,-48.340,-28.809
1789996885.256421,0.000,-28.320,-21.973,-53.711
1789996885.260047,0.000,-22.949,-11.719,-46.387
1789996885.263672,0.000,-18.066,-26.367,-39.062
1789996885.267298,0.000,-13.672,-28.320,-57.129
1789996885.270924,0.000,-9.277,-29.785,-63.477
1789996885.274549,0.000,8.789,-17.578,-75.684
1789996885.278175,0.000,23.438,-18.555,-91.309
1789996885.281801,0.000,25.879,-23.438,-113.770
1789996885.288829,-141.602,30.762,-20.020,-142.090
1789996885.292469,-159.180,61.523,0.977,-153.320
1789996885.296108,-153.320,61.523,8.789,-149.414
1789996885.299748,-156.738,48.340,-0.977,-148.926
1789996885.303388,-169.434,62.988,-0.977,-166.992
1789996885.307028,-182.617,60.547,-0.488,-182.129
1789996885.310668,-178.711,52.246,11.719,-179.199
1789996885.314308,-163.086,60.547,13.672,-178.223
1789996885.317948,-157.715,63.477,2.441,-175.781
1789996885.321587,-168.945,52.734,-11.230,-176.270
1789996885.325227,-175.293,34.668,1.465,-173.340
1789996885.328867,-160.156,20.020,18.555,-158.691
1789996885.335556,-127.441,21.484,1.953,-143.066
1789996885.339208,-125.488,11.719,0.488,-137.695
1789996885.342860,-133.789,-18.066,-4.395,-135.254
1789996885.346512,-92.285,-18.555,-5.371,-102.051
1789996885.350164,-75.684,-11.719,-13.672,-79.590
1789996885.353816,-96.191,-21.973,-19.043,-81.055
1789996885.357468,-91.797,-29.785,-16.113,-73.242
1789996885.361120,-70.312,-32.227,-26.855,-60.547
1789996885.364772,-43.457,-39.062,-34.180,-39.551
1789996885.368424,-43.457,-54.688,-37.598,-36.621
1789996885.372076,-54.688,-54.199,-48.828,-43.945
1789996885.375728,-38.086,-49.805,-48.340,-32.715
1789996885.382056,-5.859,-50.781,-32.715,-13.672
1789996885.385718,3.906,-45.898,-31.738,1.953
1789996885.389380,-18.555,-65.430,-45.410,-9.766
1789996885.393042,-23.926,-73.730,-55.664,-15.625
1789996885.396704,-13.184,-70.801,-44.922,-13.184
1789996885.400366,-10.254,-74.707,-44.922,-23.926
1789996885.404028,-12.207,-67.871,-63.965,-11.719
1789996885.407691,-5.371,-68.848,-56.641,3.906
1789996885.411353,9.766,-66.895,-48.340,15.625
1789996885.415015,27.344,-59.570,-47.852,29.785
1789996885.418677,14.648,-61.523,-57.129,12.207
1789996885.422339,-6.348,-70.312,-59.082,-8.789
1789996885.428452,0.000,-66.406,-49.805,3.418
1789996885.432123,23.926,-60.547,-46.875,16.602
1789996885.435794,18.555,-65.430,-47.852,11.719
1789996885.439465,2.441,-73.730,-45.898,9.766
1789996885.443136,4.883,-67.383,-52.734,12.695
1789996885.446807,8.789,-69.336,-42.480,14.160
1789996885.450478,10.254,-73.242,-36.133,25.391
1789996885.454149,2.930,-61.523,-61.035,27.344
1789996885.457820,-2.441,-62.500,-62.012,18.066
1789996885.461491,16.602,-61.035,-61.523,16.602
1789996885.465162,27.344,-60.059,-60.547,15.625
1789996885.468833,9.277,-60.547,-57.129,7.324
1789996885.474869,0.000,-59.082,-48.828,5.371
1789996885.478549,16.602,-64.453,-39.062,13.184
1789996885.482228,26.367,-67.383,-41.504,25.391
1789996885.485907,0.488,-71.289,-47.852,17.090
1789996885.489586,-15.137,-74.219,-55.176,-3.418
1789996885.493265,-5.859,-75.684,-65.430,-0.977
1789996885.496944,6.836,-73.730,-62.988,5.371
1789996885.500624,16.113,-64.453,-58.594,7.324
1789996885.504303,-2.930,-65.918,-53.223,-3.418
1789996885.507982,-12.207,-62.012,-56.152,-1.465
1789996885.511661,5.371,-52.246,-42.480,3.418
1789996885.515341,4.883,-53.711,-37.598,-9.277
1789996885.521191,-4.883,-55.176,-64.941,-9.766
1789996885.524878,7.324,-58.594,-59.570,-13.672
1789996885.528564,31.738,-50.293,-41.504,8.301
1789996885.532250,26.367,-45.410,-31.250,24.902
1789996885.535937,-4.395,-58.594,-49.316,7.324
1789996885.539623,-18.555,-66.406,-59.082,-8.301
1789996885.543310,-9.277,-54.199,-59.570,0.000
1789996885.546996,1.465,-53.711,-60.059,14.648
1789996885.550683,-3.418,-53.223,-51.270,7.812
1789996885.554369,-13.672,-43.945,-46.875,7.812
1789996885.558056,-13.184,-44.922,-42.480,8.301
1789996885.561742,3.418,-37.109,-39.062,7.812
1789996885.567378,8.789,-36.133,-32.227,8.789
1789996885.571071,-19.043,-41.992,-15.137,-5.859
1789996885.574764,-14.160,-35.645,-33.691,-13.672
1789996885.578456,3.906,-33.691,-53.711,-11.719
1789996885.582149,10.254,-36.621,-47.852,-2.930
1789996885.585842,-2.930,-39.551,-45.898,-3.418
1789996885.589535,-16.602,-40.527,-47.363,-2.930
1789996885.593227,-13.672,-41.992,-45.898,1.953
1789996885.596920,-19.531,-50.293,-45.410,0.000
1789996885.600613,-27.832,-42.969,-43.457,4.395
1789996885.604305,-28.320,-51.758,-32.227,-6.836
1789996885.607998,-25.879,-65.430,-35.645,-13.672
1789996885.613527,-14.160,-54.688,-51.270,-6.836
1789996885.617225,-17.090,-49.316,-45.898,-29.297
1789996885.620924,-27.832,-41.992,-43.457,-40.527
1789996885.624622,-22.461,-39.551,-23.438,-35.645
1789996885.628320,-5.859,-41.016,-21.973,-23.438
1789996885.632019,-5.371,-45.410,-49.805,-13.672
1789996885.635717,-28.320,-48.340,-49.316,-29.297
1789996885.639415,-32.227,-43.457,-54.199,-30.273
1789996885.643114,-10.254,-39.062,-54.688,-15.625
1789996885.646812,-10.254,-49.316,-46.387,-5.371
1789996885.650510,-33.203,-54.688,-50.781,-20.996
1789996885.654209,-38.574,-48.828,-54.688,-37.598
1789996885.660719,-25.879,-52.246,-53.711,-30.762
1789996885.664426,-15.625,-49.805,-53.711,-15.137
1789996885.668133,-28.809,-47.363,-47.852,-23.926
1789996885.671839,-40.039,-51.270,-49.805,-29.297
1789996885.675546,-35.645,-53.711,-54.199,-27.344
1789996885.679253,-25.879,-53.223,-60.547,-26.367
1789996885.682959,-24.902,-50.293,-45.410,-32.227
1789996885.686666,-41.992,-55.176,-46.875,-45.898
1789996885.690373,-33.691,-55.176,-57.617,-32.715
1789996885.694080,-16.113,-44.434,-47.852,-23.926
1789996885.697786,-11.719,-49.316,-46.387,-20.020
1789996885.701493,-15.625,-52.246,-42.480,-14.160
1789996885.707720,-22.461,-43.457,-39.062,-18.555
1789996885.711433,-12.207,-37.109,-41.016,-13.184
1789996885.715147,-7.324,-39.551,-41.016,3.418
1789996885.718861,-27.832,-42.480,-36.621,-9.277
1789996885.722575,-33.691,-46.875,-35.645,-32.227
1789996885.726289,-19.043,-51.270,-36.133,-24.414
1789996885.730003,-8.301,-45.410,-37.598,-14.648
1789996885.733717,-10.742,-41.016,-33.203,-15.625
1789996885.737431,-27.344,-44.922,-36.133,-13.184
1789996885.741145,-29.785,-46.875,-41.016,-21.973
1789996885.744859,-12.695,-44.434,-29.785,-20.508
1789996885.748573,-21.973,-41.992,-32.715,-17.578
1789996885.754674,-40.039,-41.504,-16.113,-31.738
1789996885.758394,-35.645,-44.922,-17.090,-23.926
1789996885.762115,-20.020,-43.945,-45.410,-13.672
1789996885.765836,-9.766,-37.109,-36.133,-19.531
1789996885.769556,-25.391,-35.645,-34.180,-26.367
1789996885.773277,-44.434,-36.133,-39.551,-36.133
1789996885.776997,-29.297,-40.527,-41.016,-27.344
1789996885.780718,-19.043,-41.504,-41.504,-20.020
1789996885.784439,-33.691,-38.574,-41.504,-29.297
1789996885.788159,-32.715,-33.203,-44.922,-24.414
1789996885.791880,-26.367,-32.715,-43.945,-20.996
1789996885.795600,-17.578,-31.250,-34.668,-20.020
1789996885.801443,-18.066,-27.832,-33.203,-15.137
1789996885.805170,-33.691,-32.715,-37.598,-25.879
1789996885.808896,-41.992,-46.387,-41.016,-34.180
1789996885.812622,-28.809,-49.805,-24.414,-27.344
1789996885.816349,-23.926,-37.109,-36.621,-19.531
1789996885.820075,-41.992,-40.039,-45.898,-21.973
1789996885.823801,-46.387,-46.387,-41.992,-25.879
1789996885.827528,-29.785,-44.434,-44.922,-26.367
1789996885.831254,-17.578,-39.551,-40.527,-18.555
1789996885.834980,-26.855,-30.762,-41.016,-29.297
1789996885.838706,-24.414,-35.156,-36.621,-35.645
1789996885.842433,-12.207,-34.668,-34.180,-32.227
1789996885.848154,-7.812,-27.832,-34.180,-30.273
1789996885.851886,-21.484,-31.738,-42.480,-39.062
1789996885.855617,-37.109,-34.180,-42.969,-47.852
1789996885.859349,-25.391,-27.832,-41.016,-36.621
1789996885.863080,-25.879,-36.133,-25.879,-49.805
1789996885.866812,-36.621,-45.898,-30.273,-49.316
1789996885.870543,-45.898,-40.527,-58.105,-43.457
1789996885.874275,-51.758,-41.016,-47.363,-29.297
1789996885.878006,-26.855,-33.691,-39.551,-16.113
1789996885.881738,-17.578,-29.297,-42.969,-26.855
1789996885.885469,-34.668,-34.180,-39.062,-36.133
1789996885.889201,-41.016,-30.273,-31.738,-35.156
1789996885.894718,-28.809,-27.344,-32.227,-22.949
1789996885.898454,-18.066,-29.297,-36.621,-27.344
1789996885.902190,-42.969,-31.738,-39.062,-30.273
1789996885.905926,-52.734,-34.180,-29.785,-19.531
1789996885.909662,-34.180,-31.738,-27.832,-18.066
1789996885.913398,-19.531,-30.273,-38.086,-19.043
1789996885.917134,-26.367,-37.598,-37.109,-29.297
1789996885.920870,-38.574,-37.598,-35.156,-31.250
1789996885.924606,-32.715,-35.645,-38.574,-36.621
1789996885.928342,-24.414,-39.551,-34.180,-32.715
1789996885.932078,-25.391,-47.852,-28.320,-21.484
1789996885.935814,-27.832,-42.480,-33.691,-16.113
1789996885.941132,-49.805,-36.621,-25.391,-40.527
1789996885.944872,-44.922,-38.086,-35.156,-45.898
1789996885.948612,-23.438,-25.391,-53.711,-31.250
1789996885.952352,-38.086,-26.855,-42.480,-37.598
1789996885.956091,-35.156,-36.133,-29.785,-18.555
1789996885.959831,-17.578,-31.250,-29.297,5.371
1789996885.963571,-23.926,-34.180,-36.133,-0.977
1789996885.967311,-44.434,-38.574,-35.156,-20.996
1789996885.971051,-43.945,-41.992,-38.574,-31.738
1789996885.974791,-29.297,-46.387,-42.480,-33.691
1789996885.978531,-11.719,-37.109,-39.062,-23.926
1789996885.982271,-24.902,-39.551,-36.133,-29.297
1789996885.987517,-40.527,-38.574,-40.039,-41.992
1789996885.991261,-29.785,-32.715,-47.363,-39.062
1789996885.995004,-20.996,-30.273,-32.715,-32.715
1789996885.998748,-22.461,-34.180,-22.949,-35.645
1789996886.002491,-28.809,-41.504,-47.852,-46.875
1789996886.006234,-31.250,-42.969,-44.922,-50.293
1789996886.009978,-28.320,-43.945,-37.598,-42.969
1789996886.013721,-33.203,-41.504,-50.293,-46.387
1789996886.017465,-48.828,-40.527,-47.363,-60.059
1789996886.021208,-54.199,-41.016,-43.945,-56.641
1789996886.024952,-44.922,-29.297,-45.898,-49.805
1789996886.028695,-44.434,-35.645,-51.270,-51.758
1789996886.034777,-61.523,-35.645,-49.805,-48.340
1789996886.038526,-65.918,-20.020,-42.969,-42.969
1789996886.042275,-46.387,-20.020,-37.598,-31.738
1789996886.046024,-37.109,-12.207,-32.715,-41.016
1789996886.049773,-56.641,-5.859,-40.527,-56.641
1789996886.053522,-74.707,-9.277,-28.809,-53.711
1789996886.057271,-83.008,-6.348,-23.926,-54.199
1789996886.061019,-85.938,14.648,-31.738,-72.754
1789996886.064768,-103.027,24.902,-13.184,-95.215
1789996886.068517,-125.000,21.484,-11.719,-108.887
1789996886.072266,-142.090,36.621,-41.992,-131.836
1789996886.076015,-146.484,48.828,-34.668,-143.555
1789996886.081885,-145.020,58.105,-17.578,-137.695
1789996886.085638,-182.129,50.781,-19.531,-163.574
1789996886.089392,-200.684,49.316,-11.230,-180.176
1789996886.093146,-182.617,57.617,-0.488,-175.293
1789996886.096899,-160.156,60.059,-6.348,-165.039
1789996886.100653,-164.062,44.922,-4.883,-162.109
1789996886.104407,-174.316,29.785,0.488,-168.945
1789996886.108160,-151.367,35.156,-11.719,-165.527
1789996886.111914,-135.742,25.391,-16.602,-145.996
1789996886.115668,-136.230,12.207,-4.395,-132.812
1789996886.119421,-141.602,-4.395,-16.113,-137.695
1789996886.123175,-135.742,-16.602,-8.301,-124.512
1789996886.128881,-109.375,-22.949,-3.906,-104.004
1789996886.132639,-87.402,-34.180,-34.668,-94.238
1789996886.136397,-91.309,-37.598,-34.180,-90.820
1789996886.140155,-86.914,-39.551,-27.832,-76.172
1789996886.143913,-59.570,-33.691,-29.297,-55.664
1789996886.147671,-56.152,-30.762,-38.086,-43.945
1789996886.151429,-71.777,-49.316,-39.062,-45.410
1789996886.155187,-64.453,-56.641,-33.203,-33.203
1789996886.158945,-45.898,-54.688,-37.109,-25.391
1789996886.162703,-37.109,-55.664,-45.898,-23.438
1789996886.166461,-41.992,-54.688,-36.133,-16.113
1789996886.170219,-50.293,-63.965,-33.691,-26.367
1789996886.175759,-39.551,-66.406,-41.016,-25.391
1789996886.179521,-24.902,-73.242,-33.203,-4.883
1789996886.183282,-26.855,-82.031,-15.137,0.488
1789996886.187044,-20.996,-63.477,-31.250,-9.766
1789996886.190806,-12.207,-50.293,-45.410,-4.883
1789996886.194568,-9.766,-53.223,-40.039,-11.230
1789996886.198329,-9.766,-50.781,-45.898,-19.531
1789996886.202091,-25.391,-53.711,-46.387,-11.719
1789996886.205853,-28.809,-53.223,-41.504,-0.488
1789996886.209615,-8.789,-57.129,-44.434,-3.906
1789996886.213376,-5.371,-69.336,-55.176,-6.836
1789996886.217138,-18.066,-65.430,-53.711,0.488
1789996886.222605,-13.184,-53.711,-47.852,-2.441
1789996886.226370,-3.906,-51.270,-41.504,0.977
1789996886.230135,3.906,-56.641,-41.504,14.648
1789996886.233900,-6.836,-61.035,-49.805,26.367
1789996886.237666,-32.227,-61.523,-29.297,19.043
1789996886.241431,-17.578,-56.641,-27.344,19.531
1789996886.245196,6.836,-53.711,-56.152,26.367
1789996886.248961,2.930,-53.711,-56.152,25.391
1789996886.252727,-4.883,-50.781,-49.805,27.344
1789996886.256492,-8.789,-53.711,-41.992,9.766
1789996886.260257,2.930,-56.152,-42.969,9.766
1789996886.264023,4.395,-50.781,-45.410,9.277
1789996886.269259,-15.625,-49.316,-49.805,-9.766
1789996886.273027,-20.508,-49.316,-49.316,-7.812
1789996886.276796,-6.836,-46.875,-47.363,-5.859
1789996886.280564,23.438,-42.480,-55.176,4.883
1789996886.284332,27.832,-45.410,-49.805,21.484
1789996886.288100,-5.371,-47.852,-32.227,-14.160
1789996886.291869,-25.879,-55.664,-40.527,-35.645
1789996886.295637,-6.348,-64.453,-43.457,-8.301
1789996886.299405,-10.742,-62.500,-29.297,-11.719
1789996886.303174,-24.902,-62.012,-33.203,-19.043
1789996886.306942,-22.461,-66.406,-49.316,-9.766
1789996886.310710,-17.090,-67.871,-39.062,-14.160
1789996886.315871,-14.160,-61.523,-25.879,-7.324
1789996886.319642,-24.414,-56.152,-45.898,2.930
1789996886.323413,-26.367,-54.688,-43.945,-6.348
1789996886.327184,-11.230,-59.082,-30.273,1.953
1789996886.330955,-5.371,-54.688,-31.250,1.465
1789996886.334726,-19.043,-47.852,-43.457,-11.719
1789996886.338497,-20.996,-48.340,-43.945,-2.930
1789996886.342268,-9.277,-49.316,-38.574,-8.789
1789996886.346039,-9.766,-48.828,-45.410,-9.766
1789996886.349810,-23.438,-46.875,-54.688,-12.207
1789996886.353581,-33.203,-52.734,-41.016,-23.926
1789996886.357352,-30.273,-47.852,-39.062,-21.484
1789996886.362363,-24.902,-45.410,-53.711,-17.578
1789996886.366137,-34.180,-46.387,-50.781,-31.250
1789996886.369910,-50.781,-41.016,-35.645,-44.922
1789996886.373683,-42.480,-43.457,-27.344,-35.645
1789996886.377457,-30.762,-40.039,-48.828,-44.434
1789996886.381230,-33.203,-28.809,-50.781,-55.664
1789996886.385004,-44.434,-16.602,-38.574,-57.617
1789996886.388777,-53.223,-7.812,-33.203,-62.988
1789996886.392551,-49.805,-16.602,-27.344,-63.965
1789996886.396324,-55.176,-17.090,-28.320,-64.941
1789996886.400098,-79.590,-5.371,-21.973,-69.336
1789996886.403871,-93.750,10.742,-10.742,-70.312
1789996886.409572,-99.121,13.672,-6.836,-70.801
1789996886.413349,-113.281,17.578,-12.207,-96.191
1789996886.417127,-139.160,28.809,4.883,-126.953
1789996886.420904,-158.203,36.621,-13.184,-145.020
1789996886.424681,-170.410,52.246,-25.391,-150.391
1789996886.428458,-175.781,50.781,-2.441,-162.598
1789996886.432235,-194.336,40.527,-4.395,-180.176
1789996886.436012,-217.285,37.598,-8.789,-193.359
1789996886.439789,-210.938,48.828,-1.953,-191.406
1789996886.443566,-182.129,51.270,11.719,-170.898
1789996886.447343,-167.480,41.504,10.742,-164.551
1789996886.451121,-184.082,33.691,6.836,-178.711
1789996886.456708,-185.059,32.715,1.953,-175.293
1789996886.460489,-151.855,26.855,-4.883,-145.508
1789996886.464269,-129.883,17.090,-8.301,-124.023
1789996886.468050,-141.602,4.395,-11.719,-133.789
1789996886.471830,-133.301,-7.324,-12.207,-128.906
1789996886.475611,-105.957,-6.348,-24.902,-108.398
1789996886.479391,-90.332,-14.648,-21.484,-98.633
1789996886.483171,-91.309,-20.996,-14.160,-91.797
1789996886.486952,-93.750,-20.996,-44.434,-80.078
1789996886.490732,-79.590,-25.879,-44.922,-66.406
1789996886.494513,-51.758,-36.133,-41.016,-58.105
1789996886.498293,-48.340,-46.387,-43.945,-50.781
1789996886.503768,-57.129,-50.781,-36.621,-41.504
1789996886.507552,-44.434,-48.340,-40.039,-41.016
1789996886.511335,-21.484,-51.758,-43.457,-33.691
1789996886.515119,-11.230,-68.359,-45.898,-30.273
1789996886.518903,-21.973,-63.965,-51.758,-31.250
1789996886.522686,-36.621,-59.570,-60.059,-30.762
1789996886.526469,-29.297,-70.801,-38.086,-30.762
1789996886.530253,-8.301,-73.242,-34.180,-5.371
1789996886.534037,-8.301,-72.754,-57.617,4.395
1789996886.537820,-17.090,-62.988,-54.199,-14.160
1789996886.541604,-11.230,-62.988,-61.035,-16.113
1789996886.545387,8.301,-65.430,-51.270,-6.348
1789996886.550709,6.836,-55.664,-44.922,3.906
1789996886.554495,-14.160,-59.570,-48.828,0.488
1789996886.558281,-0.488,-56.152,-51.758,7.812
1789996886.562068,20.508,-57.129,-53.711,13.672
1789996886.565854,13.184,-73.242,-52.246,4.883
1789996886.569640,-7.812,-73.730,-51.758,-3.418
1789996886.573426,-3.906,-67.383,-54.199,-0.488
1789996886.577213,13.184,-66.406,-55.176,13.672
1789996886.580999,13.184,-68.359,-48.340,25.391
1789996886.584785,5.371,-66.895,-44.922,12.695
1789996886.588572,6.348,-64.941,-51.270,0.977
1789996886.592358,12.207,-63.477,-48.340,11.230
1789996886.597594,19.531,-57.129,-43.945,17.090
1789996886.601382,10.254,-59.570,-57.617,7.812
1789996886.605171,-5.371,-64.941,-32.715,3.906
1789996886.608960,1.953,-62.988,-35.156,3.906
1789996886.612749,20.508,-59.082,-69.824,6.836
1789996886.616537,12.695,-60.059,-54.199,16.602
1789996886.620326,3.906,-63.965,-50.293,9.766
1789996886.624115,3.418,-68.359,-53.711,4.395
1789996886.627904,6.348,-63.965,-62.012,3.418
1789996886.631692,18.066,-54.688,-55.176,5.371
1789996886.635481,14.160,-55.176,-43.457,1.465
1789996886.639270,2.930,-57.617,-46.387,-8.301
1789996886.644329,7.324,-53.223,-46.875,6.836
1789996886.648120,17.578,-51.270,-40.527,5.859
1789996886.651911,1.465,-52.734,-38.086,-8.789
1789996886.655701,-2.930,-48.828,-46.875,3.418
1789996886.659492,11.230,-48.828,-47.852,13.184
1789996886.663283,11.719,-62.500,-32.227,9.277
1789996886.667074,0.977,-64.941,-50.293,7.324
1789996886.670865,0.000,-52.246,-64.941,10.254
1789996886.674656,10.254,-49.805,-41.016,10.742
1789996886.678447,15.625,-51.758,-29.785,8.301
1789996886.682238,13.672,-47.852,-30.273,12.695
1789996886.686029,-4.883,-44.434,-32.227,13.672
1789996886.691049,-21.484,-48.340,-37.598,-2.930
1789996886.694842,-0.488,-48.340,-40.039,3.418
1789996886.698635,6.836,-49.805,-42.969,6.836
1789996886.702428,-16.602,-50.781,-45.898,-15.137
1789996886.706221,-16.113,-43.945,-42.969,-16.113
1789996886.710014,-5.371,-47.852,-37.109,-7.324
1789996886.713807,-1.953,-48.340,-40.527,7.324
1789996886.717600,-10.742,-46.875,-50.293,0.000
1789996886.721393,-20.996,-47.852,-31.250,-10.254
1789996886.725186,-3.418,-40.527,-29.297,1.953
1789996886.728979,16.602,-38.574,-52.246,11.230
1789996886.732772,5.371,-44.922,-35.156,4.395
1789996886.737648,-12.207,-48.828,-36.133,3.906
1789996886.741442,-12.207,-43.457,-42.969,8.789
1789996886.745237,-0.977,-41.992,-26.367,12.207
1789996886.749032,-5.859,-43.945,-31.250,0.000
1789996886.752826,-15.137,-41.016,-43.457,-18.555
1789996886.756621,-16.113,-48.828,-41.016,-13.184
1789996886.760416,-9.766,-44.922,-38.086,-1.953
1789996886.764211,-2.441,-33.203,-37.109,-8.789
1789996886.768006,-7.324,-37.598,-39.551,-10.742
1789996886.771800,-16.113,-41.992,-41.016,-14.648
1789996886.775595,-15.137,-38.086,-36.133,-13.184
1789996886.779390,-0.977,-40.039,-35.156,-5.371
1789996886.785611,1.465,-32.227,-30.273,1.953
1789996886.789410,-4.883,-24.902,-24.414,-2.930
1789996886.793208,-1.465,-30.273,-29.297,-7.812
1789996886.797007,3.418,-37.109,-43.457,-7.324
1789996886.800806,-8.301,-40.527,-43.457,-11.230
1789996886.804604,-20.508,-36.621,-22.461,-13.184
1789996886.808403,-18.555,-29.785,-34.180,-11.230
1789996886.812201,-12.207,-28.809,-47.852,-9.766
1789996886.816000,-10.742,-36.133,-49.316,-9.277
1789996886.819799,-20.020,-40.039,-42.480,-8.301
1789996886.823597,-22.461,-35.156,-38.574,-8.789
1789996886.827396,-4.395,-31.738,-34.180,-2.441
1789996886.832681,4.395,-29.785,-30.762,-3.906
1789996886.836482,-9.277,-31.738,-38.574,-11.719
1789996886.840283,-12.207,-34.668,-37.598,-13.672
1789996886.844084,-3.906,-35.645,-38.574,-10.742
1789996886.847885,3.418,-34.668,-42.480,-4.395
1789996886.851686,-18.555,-38.574,-40.527,-11.230
1789996886.855487,-40.039,-42.969,-38.574,-25.879
1789996886.859288,-21.973,-34.668,-31.738,-18.066
1789996886.863089,-8.301,-38.086,-36.133,-10.254
1789996886.866890,-19.043,-45.898,-54.688,-26.367
1789996886.870691,-14.648,-48.828,-25.391,-19.531
1789996886.874492,1.465,-41.016,-11.719,5.371
1789996886.879722,-33.691,-32.227,-51.270,0.000
1789996886.883525,-56.641,-40.527,-53.711,0.000
1789996886.887329,-57.617,-44.922,-41.992,0.000
1789996886.891132,-78.125,-44.922,-45.410,0.000
1789996886.894935,-65.918,-36.621,-52.734,0.000
1789996886.898738,-60.547,-34.180,-51.270,0.000
1789996886.902541,-77.637,-39.062,-51.270,0.000
1789996886.906344,-67.871,-34.668,-49.316,0.000
1789996886.910148,-62.012,-30.273,-34.180,0.000
1789996886.913951,-52.734,-29.297,-26.367,0.000
1789996886.917754,-52.734,-31.738,-38.574,0.000
1789996886.921557,-65.918,-39.062,-40.527,0.000
1789996886.926690,-62.988,-42.969,-40.039,-49.805
1789996886.930495,-52.246,-42.480,-41.992,-52.246
1789996886.934300,-46.387,-45.898,-40.039,-41.016
1789996886.938105,-49.316,-42.969,-40.527,-35.645
1789996886.941911,-57.129,-41.504,-51.270,-53.711
1789996886.945716,-51.758,-42.969,-38.086,-55.664
1789996886.949521,-43.945,-47.852,-35.645,-56.152
1789996886.953326,-52.734,-52.246,-49.805,-51.270
1789996886.957131,-59.570,-49.316,-44.922,-45.898
1789996886.960936,-45.410,-41.504,-44.922,-47.363
1789996886.964742,-26.855,-46.875,-40.039,-35.645
1789996886.968547,-32.227,-51.758,-38.574,-32.227
1789996886.973526,-44.922,-52.246,-35.156,-44.922
1789996886.977333,-36.621,-54.688,-27.344,-34.180
1789996886.981140,-19.531,-43.945,-21.484,-16.602
1789996886.984947,-27.832,-36.621,-36.133,-33.203
1789996886.988754,-39.551,-38.086,-44.434,-49.805
1789996886.992561,-37.109,-37.598,-21.973,-42.480
1789996886.996367,-36.621,-46.875,-22.461,-29.297
1789996887.000175,-32.227,-45.410,-24.414,-22.949
1789996887.003981,-42.480,-35.156,-36.621,-33.691
1789996887.007788,-46.875,-37.109,-41.504,-34.668
1789996887.011595,-22.949,-26.855,-33.203,-21.484
1789996887.015402,-19.531,-33.691,-35.156,-15.625
1789996887.020281,-35.156,-48.340,-35.156,-34.668
1789996887.024089,-44.434,-40.527,-33.691,-49.805
1789996887.027898,-41.016,-42.480,-37.598,-39.551
1789996887.031706,-31.250,-43.945,-39.551,-27.832
1789996887.035515,-28.809,-37.598,-34.180,-24.414
1789996887.039323,-42.480,-40.039,-40.527,-42.480
1789996887.043132,-50.293,-48.340,-47.363,-44.434
1789996887.046940,-39.551,-49.805,-49.316,-35.156
1789996887.050749,-39.551,-32.227,-47.363,-42.480
1789996887.054557,-51.270,-22.461,-36.621,-41.016
1789996887.058366,-45.410,-36.621,-41.504,-34.668
1789996887.062174,-35.156,-43.457,-26.855,-47.363
1789996887.066970,-37.109,-45.898,-24.414,-46.387
1789996887.070780,-43.945,-42.969,-48.340,-34.668
1789996887.074590,-44.922,-37.598,-32.227,-35.645
1789996887.078400,-29.785,-32.715,-26.367,-27.832
1789996887.082210,-16.602,-29.297,-33.203,-28.320
1789996887.086020,-25.391,-31.250,-35.156,-34.668
1789996887.089830,-35.645,-25.879,-24.902,-17.578
1789996887.093640,-19.531,-23.926,-20.996,1.465
1789996887.097450,-13.672,-26.367,-35.156,-4.395
1789996887.101259,-53.223,-36.621,-48.828,-43.945
1789996887.105069,-72.266,-44.922,-50.781,-62.012
1789996887.108879,-61.523,-30.273,-52.734,-50.293
1789996887.113622,-41.016,-30.762,-49.316,-37.109
1789996887.117433,-25.879,-31.250,-43.945,-27.344
1789996887.121244,-38.574,-27.832,-25.391,-34.180
1789996887.125056,-29.297,-27.344,-21.484,-30.273
1789996887.128867,-12.695,-21.973,-43.457,-22.949
1789996887.132678,-23.926,-27.344,-41.016,-19.043
1789996887.136489,-45.898,-38.574,-48.340,-32.715
1789996887.140301,-56.152,-41.504,-49.316,-45.410
1789996887.144112,-46.387,-40.039,-52.246,-37.109
1789996887.147923,-22.461,-31.250,-51.758,-29.297
1789996887.151734,-19.043,-22.461,-36.133,-15.625
1789996887.155545,-49.805,-37.598,-37.109,-31.738
1789996887.160788,-46.387,-36.621,-48.828,-43.945
1789996887.164601,-29.785,-26.855,-51.270,-34.180
1789996887.168415,-34.180,-32.715,-33.691,-30.762
1789996887.172228,-35.645,-21.973,-24.414,-36.621
1789996887.176041,-42.480,-16.113,-32.715,-40.527
1789996887.179854,-47.363,-23.926,-41.992,-34.668
1789996887.183667,-46.875,-23.926,-38.086,-47.363
1789996887.187481,-62.500,-15.625,-18.555,-75.195
1789996887.191294,-90.332,-3.906,-38.574,-93.750
1789996887.195107,-82.520,-7.324,-43.457,-72.754
1789996887.198920,-72.266,10.742,-27.832,-70.312
1789996887.202734,-91.309,42.969,-21.484,-91.309
1789996887.207879,-127.930,49.805,-20.020,-126.953
1789996887.211694,-146.973,63.965,-17.090,-149.414
1789996887.215509,-148.926,73.730,-13.672,-156.250
1789996887.219325,-187.012,76.172,-7.812,-195.801
1789996887.223140,-228.516,79.102,-15.137,-222.168
1789996887.226955,-228.027,76.172,-8.789,-218.262
1789996887.230770,-204.590,78.125,12.695,-210.449
1789996887.234585,-210.449,74.219,13.672,-206.055
1789996887.238400,-227.051,56.641,10.254,-209.961
1789996887.242215,-203.125,67.383,9.277,-193.848
1789996887.246030,-181.641,67.383,24.902,-168.945
1789996887.249845,-175.293,50.293,12.695,-159.668
1789996887.254956,-187.012,44.434,-10.742,-170.410
1789996887.258773,-181.641,30.273,1.465,-157.227
1789996887.262590,-146.973,25.391,-13.184,-125.977
1789996887.266407,-133.789,19.043,-16.113,-111.816
1789996887.270224,-128.418,-0.488,-8.301,-92.285
1789996887.274040,-109.863,-11.719,-16.113,-82.031
1789996887.277857,-98.145,-17.090,-31.250,-78.125
1789996887.281674,-83.984,-24.902,-34.180,-80.078
1789996887.285491,-57.129,-18.555,-29.785,-63.477
1789996887.289308,-52.246,-23.926,-33.203,-61.035
1789996887.293124,-50.781,-34.180,-39.062,-59.082
1789996887.296941,-35.156,-40.039,-56.641,-41.504
1789996887.301908,-36.133,-41.016,-36.621,-41.504
1789996887.305726,-39.551,-37.598,-36.133,-26.855
1789996887.309544,-31.738,-43.945,-59.570,-11.230
1789996887.313363,-17.578,-57.617,-54.688,-6.836
1789996887.317181,-11.230,-61.523,-54.688,-3.418
1789996887.320999,-22.949,-49.316,-54.688,-4.883
1789996887.324818,-16.602,-55.664,-46.875,1.953
1789996887.328636,-8.789,-83.496,-45.410,12.695
1789996887.332454,1.953,-71.777,-54.688,13.184
1789996887.336272,1.465,-57.129,-55.664,6.836
1789996887.340091,1.953,-62.012,-52.734,17.090
1789996887.343909,6.348,-73.242,-49.316,22.949
1789996887.348793,-1.953,-84.961,-53.223,11.230
1789996887.352613,3.906,-64.941,-49.316,10.742
1789996887.356432,-0.488,-54.688,-50.293,17.578
1789996887.360252,0.977,-65.430,-53.223,19.531
1789996887.364072,19.043,-59.082,-37.109,21.973
1789996887.367892,21.973,-56.152,-48.340,20.996
1789996887.371711,14.648,-57.129,-63.477,16.602
1789996887.375531,10.254,-63.477,-60.547,12.207
1789996887.379351,22.461,-57.617,-58.105,13.672
1789996887.383170,34.668,-57.129,-48.340,24.902
1789996887.386990,16.602,-59.082,-47.852,20.996
1789996887.390810,3.418,-57.617,-42.969,19.531
1789996887.395591,12.695,-57.617,-35.156,19.043
1789996887.399412,27.832,-44.922,-43.457,22.949
1789996887.403234,13.184,-54.688,-47.852,27.344
1789996887.407054,-2.441,-68.848,-46.875,18.066
1789996887.410875,8.301,-58.105,-49.316,13.672
1789996887.414696,22.461,-51.270,-44.922,9.766
1789996887.418517,15.625,-65.918,-50.293,4.883
1789996887.422338,6.836,-62.500,-45.410,11.719
1789996887.426159,16.602,-45.898,-41.016,9.277
1789996887.429980,18.555,-52.734,-46.875,5.859
1789996887.433801,10.254,-62.012,-40.039,6.836
1789996887.437622,-3.906,-61.035,-28.809,-2.441
1789996887.442290,-22.461,-69.824,-30.762,-15.625
1789996887.446112,-12.207,-75.684,-51.270,0.488
1789996887.449934,1.465,-59.082,-56.152,13.672
1789996887.453756,-9.277,-49.805,-50.781,6.836
1789996887.457578,-12.207,-49.805,-41.016,16.602
1789996887.461400,9.277,-50.781,-37.109,25.879
1789996887.465222,28.320,-37.598,-27.344,39.062
1789996887.469044,5.859,-35.156,-38.574,14.160
1789996887.472866,-19.043,-41.992,-57.129,-19.531
1789996887.476688,-0.488,-39.062,-53.223,-3.906
1789996887.480510,22.461,-44.434,-52.246,17.578
1789996887.484332,15.137,-44.434,-46.387,18.555
1789996887.488957,3.418,-50.781,-34.668,20.996
1789996887.492780,17.090,-43.945,-39.551,37.109
1789996887.496603,31.250,-29.785,-42.969,32.227
1789996887.500426,28.809,-35.645,-26.855,14.648
1789996887.504249,10.742,-51.270,-43.945,-4.395
1789996887.508072,7.812,-49.805,-50.293,-6.348
1789996887.511895,11.719,-37.598,-38.086,6.836
1789996887.515718,14.160,-41.504,-40.527,-4.395
1789996887.519541,-2.441,-47.852,-46.875,-18.066
1789996887.523364,-23.438,-59.082,-51.758,-12.207
1789996887.527187,-7.812,-52.246,-42.969,-1.953
1789996887.531010,6.836,-39.062,-35.645,6.836
1789996887.536130,0.488,-40.527,-34.180,-1.465
1789996887.539954,-4.883,-30.273,-33.203,-8.301
1789996887.543779,-3.906,-29.785,-30.273,-10.254
1789996887.547604,8.301,-46.387,-36.133,-2.441
1789996887.551428,-1.953,-51.758,-37.598,-1.465
1789996887.555253,-17.578,-48.828,-32.227,-6.836
1789996887.559078,-1.465,-29.785,-39.551,3.418
1789996887.562902,-1.465,-25.879,-44.434,-9.766
1789996887.566727,-11.719,-46.875,-46.387,-19.531
1789996887.570551,-19.531,-49.316,-41.992,-19.043
1789996887.574376,-13.672,-30.273,-38.086,-14.160
1789996887.578201,-10.742,-27.344,-41.504,-11.719
1789996887.583236,-8.789,-36.133,-40.039,-14.160
1789996887.587062,-7.812,-35.645,-40.039,-20.020
1789996887.590888,-24.414,-31.738,-42.480,-26.367
1789996887.594714,-22.461,-43.457,-45.898,-23.926
1789996887.598541,-3.418,-47.852,-37.109,-17.090
1789996887.602366,-12.207,-42.969,-30.762,-24.414
1789996887.606193,-23.926,-41.016,-43.457,-20.020
1789996887.610019,-33.691,-48.828,-47.363,-27.832
1789996887.613845,-25.879,-52.734,-50.781,-19.531
1789996887.617671,-20.020,-44.922,-45.898,-4.395
1789996887.621497,-48.340,-50.781,-55.176,-36.133
1789996887.625323,-41.016,-56.641,-58.105,-41.992
1789996887.630250,-17.090,-46.387,-45.898,-24.414
1789996887.634077,-0.977,-36.133,-41.016,-19.531
1789996887.637904,-3.906,-28.320,-50.293,-27.832
1789996887.641732,-30.273,-40.039,-44.922,-38.574
1789996887.645559,-32.715,-39.062,-24.902,-33.203
1789996887.649386,-24.902,-39.551,-23.926,-22.461
1789996887.653214,-40.527,-57.129,-39.551,-29.297
1789996887.657041,-41.992,-54.688,-26.855,-35.156
1789996887.660868,-27.832,-48.340,-21.484,-20.020
1789996887.664696,-16.113,-45.898,-47.852,-18.066
1789996887.668523,-16.602,-46.875,-43.457,-18.555
1789996887.672350,-29.785,-45.410,-35.645,-21.484
1789996887.677170,-30.273,-45.410,-35.156,-30.762
1789996887.680998,-11.719,-31.250,-33.691,-17.090
1789996887.684827,-12.207,-28.809,-28.809,-18.066
1789996887.688655,-22.461,-38.086,-26.367,-20.508
1789996887.692484,-31.250,-37.598,-30.273,-14.648
1789996887.696312,-27.832,-40.527,-28.809,-13.672
1789996887.700141,-15.625,-44.434,-31.250,-12.695
1789996887.703969,-34.180,-40.039,-15.625,-16.113
1789996887.707798,-41.504,-36.621,-19.043,-18.555
1789996887.711627,-23.438,-32.227,-47.852,-14.648
1789996887.715455,-20.508,-38.574,-35.156,-20.020
1789996887.719284,-30.273,-40.527,-34.668,-34.668
1789996887.724610,-34.668,-35.156,-43.457,-32.227
1789996887.728441,-24.902,-32.715,-34.180,-15.137
1789996887.732271,-10.254,-36.621,-30.762,-7.324
1789996887.736101,-10.742,-38.086,-30.273,-8.789
1789996887.739931,-24.902,-35.645,-30.273,-11.719
1789996887.743762,-29.785,-36.621,-35.156,-21.973
1789996887.747592,-18.066,-27.344,-32.227,-11.719
1789996887.751422,-6.348,-20.508,-30.762,7.812
1789996887.755252,-24.414,-23.438,-32.715,-6.348
1789996887.759083,-32.227,-29.785,-37.109,-20.508
1789996887.762913,-10.742,-26.367,-39.551,-12.695
1789996887.766743,0.977,-20.996,-32.227,-3.418
1789996887.771373,-20.020,-27.344,-34.180,-10.254
1789996887.775204,-40.039,-29.785,-41.504,-21.973
1789996887.779035,-30.273,-30.273,-39.062,-23.438
1789996887.782867,-18.066,-36.621,-40.527,-22.461
1789996887.786698,-39.062,-36.621,-47.363,-27.344
1789996887.790529,-55.176,-35.156,-42.969,-31.250
1789996887.794360,-50.781,-40.527,-41.504,-40.527
1789996887.798191,-32.227,-36.133,-45.410,-39.062
1789996887.802022,-23.438,-36.621,-41.504,-29.785
1789996887.805854,-35.645,-39.551,-42.480,-36.621
1789996887.809685,-35.156,-34.668,-50.781,-28.320
1789996887.813516,-21.484,-33.691,-51.270,-14.160
1789996887.818125,-14.648,-35.156,-37.598,-21.484
1789996887.821957,-19.043,-30.762,-39.551,-27.344
1789996887.825789,-8.789,-23.438,-46.387,-17.090
1789996887.829621,-21.973,-39.062,-43.457,-26.367
1789996887.833453,-28.809,-46.387,-37.598,-24.902
1789996887.837285,-28.809,-35.645,-37.109,-22.949
1789996887.841117,-33.691,-31.738,-18.066,-16.113
1789996887.844949,-25.879,-46.875,-14.160,-6.348
1789996887.848781,-7.324,-44.434,-45.410,-15.625
1789996887.852613,-16.113,-30.273,-37.598,-25.879
1789996887.856445,-44.434,-36.621,-33.203,-44.434
1789996887.860277,-33.691,-32.227,-33.691,-32.227
1789996887.865325,-16.602,-28.809,-26.367,-20.508
1789996887.869159,-24.414,-31.738,-26.855,-33.691
1789996887.872992,-46.387,-37.598,-31.738,-43.945
1789996887.876825,-40.527,-33.691,-36.621,-37.598
1789996887.880659,-26.367,-27.344,-28.320,-24.902
1789996887.884492,-18.555,-34.668,-23.438,-30.273
1789996887.888326,-25.391,-29.297,-41.016,-29.785
1789996887.892159,-31.738,-20.508,-37.109,-30.762
1789996887.895992,-29.297,-27.344,-37.109,-36.621
1789996887.899826,-41.016,-31.738,-39.551,-40.527
1789996887.903659,-51.270,-24.414,-24.414,-40.039
1789996887.907493,-51.758,-15.625,-20.020,-42.480
1789996887.912449,-50.293,-25.391,-18.066,-45.410
1789996887.916284,-39.062,-16.113,-6.348,-39.551
1789996887.920118,-53.223,5.371,-8.789,-56.641
1789996887.923953,-85.449,0.977,-10.742,-86.914
1789996887.927787,-92.773,4.883,-5.859,-96.680
1789996887.931622,-90.332,19.043,2.930,-90.332
1789996887.935457,-122.070,25.879,8.301,-106.934
1789996887.939291,-154.297,41.504,-3.418,-149.902
1789996887.943126,-165.527,57.617,21.973,-171.875
1789996887.946961,-169.922,59.082,32.227,-168.457
1789996887.950795,-184.570,53.711,0.977,-185.547
1789996887.954630,-206.055,55.664,10.742,-205.078
1789996887.959489,-225.098,55.664,17.090,-203.125
1789996887.963325,-215.332,57.129,20.020,-202.637
1789996887.967160,-192.383,53.711,30.762,-189.453
1789996887.970996,-199.707,57.129,31.250,-182.617
1789996887.974832,-213.379,50.293,15.625,-187.988
1789996887.978667,-207.031,38.574,4.395,-186.035
1789996887.982503,-175.781,44.434,-7.812,-167.480
1789996887.986339,-152.344,26.855,-18.555,-146.973
1789996887.990175,-146.484,11.719,-6.348,-132.812
1789996887.994010,-149.902,4.395,-1.465,-122.559
1789996887.997846,-110.352,13.672,-4.883,-95.215
1789996888.001682,-80.566,-1.953,-3.418,-83.008
1789996888.006479,-98.633,-34.180,-18.555,-88.867
1789996888.010315,-84.961,-31.738,-22.461,-77.148
1789996888.014152,-65.430,-27.832,-26.855,-74.219
1789996888.017989,-65.918,-33.203,-33.203,-65.430
1789996888.021826,-79.590,-42.969,-39.062,-64.941
1789996888.025663,-78.125,-55.176,-38.574,-55.176
1789996888.029499,-56.641,-50.293,-33.691,-42.969
1789996888.033336,-38.574,-52.246,-48.340,-28.809
1789996888.037173,-35.645,-59.570,-55.176,-16.113
1789996888.041010,-39.062,-48.828,-53.711,-22.461
1789996888.044846,-34.668,-46.387,-58.105,-27.344
1789996888.048683,-10.742,-47.363,-50.293,-6.348
1789996888.053382,-1.465,-53.711,-56.152,-6.836
1789996888.057220,-27.832,-64.941,-72.754,-25.879
1789996888.061057,-37.109,-66.406,-39.062,-22.949
1789996888.064895,-18.066,-62.012,-41.016,-5.371
1789996888.068733,2.441,-57.617,-65.918,-3.418
1789996888.072570,-5.859,-60.059,-61.035,-12.695
1789996888.076408,-12.695,-59.082,-65.430,-9.277
1789996888.080246,0.488,-59.570,-55.664,7.324
1789996888.084083,14.648,-62.500,-51.270,31.250
1789996888.087921,7.812,-62.988,-61.035,20.020
1789996888.091759,-1.465,-62.012,-57.129,-1.465
1789996888.095597,9.766,-53.223,-46.387,-0.488
1789996888.100329,0.000,-52.734,-43.945,6.348
1789996888.104167,0.000,-67.383,-50.781,-1.465
1789996888.108006,0.000,-67.871,-48.340,-4.395
1789996888.111845,0.000,-61.035,-61.523,-0.977
1789996888.115683,0.000,-57.617,-50.293,1.465
1789996888.119522,0.000,-61.035,-34.180,2.930
1789996888.123361,0.000,-62.988,-57.129,-0.488
1789996888.127199,0.000,-61.035,-45.410,19.043
1789996888.131038,0.000,-49.316,-41.992,26.367
1789996888.134876,0.000,-45.410,-56.641,18.555
1789996888.138715,0.000,-51.758,-51.270,17.090
1789996888.142554,0.000,-57.129,-45.410,5.859
1789996888.147136,-3.418,-58.105,-60.059,-11.719
1789996888.150976,12.207,-55.664,-59.570,-1.953
1789996888.154815,-8.789,-63.965,-57.129,-0.488
1789996888.158655,-10.742,-52.734,-63.965,-7.324
1789996888.162494,12.695,-39.062,-29.785,-7.324
1789996888.166333,20.020,-40.527,-25.879,-1.465
1789996888.170173,1.953,-39.551,-52.246,5.859
1789996888.174012,-11.719,-43.945,-54.688,0.977
1789996888.177851,-2.441,-46.387,-53.711,-1.465
1789996888.181691,5.859,-45.410,-47.363,1.465
1789996888.185530,2.441,-53.223,-47.363,2.930
1789996888.189370,-4.883,-45.410,-40.527,10.742
1789996888.193882,-0.977,-40.527,-30.762,12.207
1789996888.197722,6.836,-47.852,-38.086,1.953
1789996888.201562,7.812,-45.410,-44.434,2.930
1789996888.205402,-5.371,-41.016,-48.340,-4.883
1789996888.209242,-8.789,-37.598,-52.246,-8.301
1789996888.213082,0.977,-39.062,-33.691,-3.906
1789996888.216922,8.789,-37.109,-33.691,8.789
1789996888.220762,9.766,-36.133,-26.367,15.137
1789996888.224602,-6.836,-50.293,-28.320,-12.695
1789996888.228442,-6.836,-63.477,-54.199,-9.766
1789996888.232282,1.465,-62.988,-42.969,12.207
1789996888.236123,6.348,-54.688,-46.875,7.812
1789996888.240577,7.324,-46.387,-53.711,13.184
1789996888.244418,-10.254,-49.805,-42.480,4.395
1789996888.248259,-17.090,-48.340,-31.250,-9.277
1789996888.252099,-21.484,-45.898,-32.227,-5.859
1789996888.255940,-34.668,-41.992,-30.762,-20.996
1789996888.259781,-37.109,-39.062,-28.320,-20.508
1789996888.263621,-41.504,-52.246,-37.109,-16.602
1789996888.267462,-16.602,-45.410,-35.156,-4.395
1789996888.271303,-17.578,-42.969,-10.742,-7.324
1789996888.275143,-43.945,-55.664,-36.133,-30.273
1789996888.278984,-31.738,-47.363,-58.594,-24.414
1789996888.282825,-16.602,-38.574,-44.922,-19.531
1789996888.287768,-25.391,-41.504,-44.922,-27.344
1789996888.291610,-38.086,-48.340,-41.992,-25.391
1789996888.295452,-34.668,-46.387,-39.062,-22.461
1789996888.299294,-27.832,-41.504,-38.574,-20.996
1789996888.303135,-34.180,-42.969,-41.992,-23.926
1789996888.306977,-45.410,-47.363,-38.574,-19.043
1789996888.310819,-45.410,-47.852,-30.273,-13.184
1789996888.314661,-30.762,-52.734,-36.621,-36.133
1789996888.318502,-22.949,-51.758,-38.574,-40.527
1789996888.322344,-41.504,-42.480,-30.273,-19.531
1789996888.326186,-53.223,-38.574,-33.203,-20.508
1789996888.330028,-32.227,-41.016,-50.293,-18.555
1789996888.334846,0.000,-35.156,-38.574,-5.859
1789996888.338689,0.000,-28.809,-34.668,-14.648
1789996888.342531,0.000,-40.039,-42.969,-30.273
1789996888.346374,0.000,-32.227,-36.133,-17.090
1789996888.350217,0.000,-26.367,-33.691,-13.184
1789996888.354060,0.000,-32.715,-32.227,-35.156
1789996888.357902,0.000,-27.832,-26.367,-31.250
1789996888.361745,0.000,-38.086,-35.156,-26.855
1789996888.365588,0.000,-44.434,-41.016,-20.508
1789996888.369431,0.000,-37.109,-39.062,-14.160
1789996888.373273,0.000,-35.156,-20.508,-32.715
1789996888.377116,0.000,-32.715,-20.996,-35.156
1789996888.381836,-26.367,-33.203,-55.176,-27.344
1789996888.385679,-20.508,-34.668,-45.898,-26.367
1789996888.389523,-29.785,-35.645,-40.039,-33.203
1789996888.393367,-45.410,-38.086,-44.434,-43.945
1789996888.397210,-38.574,-36.133,-42.969,-46.387
1789996888.401054,-30.273,-39.551,-38.574,-41.992
1789996888.404897,-39.551,-46.387,-34.180,-40.527
1789996888.408741,-36.133,-34.180,-33.691,-42.480
1789996888.412584,-20.508,-34.180,-39.062,-25.391
1789996888.416428,-16.602,-41.016,-40.527,-15.625
1789996888.420272,-29.785,-38.574,-37.598,-26.855
1789996888.424115,-50.781,-45.898,-40.527,-50.293
1789996888.428714,-43.457,-44.434,-34.668,-51.758
1789996888.432558,-22.461,-34.180,-40.039,-23.438
1789996888.436403,-28.809,-32.227,-25.391,-29.297
1789996888.440247,-43.945,-41.016,-24.414,-39.062
1789996888.444091,-43.945,-41.992,-41.992,-36.621
1789996888.447936,-37.109,-26.855,-39.551,-33.203
1789996888.451780,-24.902,-20.996,-36.621,-20.020
1789996888.455624,-23.926,-26.367,-27.832,-21.973
1789996888.459469,-38.086,-30.273,-32.227,-34.668
1789996888.463313,-32.715,-30.273,-40.527,-43.457
1789996888.467157,-17.090,-34.180,-41.992,-32.715
1789996888.471001,-23.926,-26.367,-37.109,-32.715
1789996888.475582,-33.203,-17.578,-37.109,-37.598
1789996888.479427,-29.297,-24.414,-40.039,-35.645
1789996888.483272,-20.996,-20.508,-29.785,-29.297
1789996888.487117,-21.484,-29.297,-21.973,-25.879
1789996888.490962,-42.969,-42.969,-28.809,-38.574
1789996888.494807,-53.223,-28.809,-37.109,-54.688
1789996888.498652,-34.180,-20.508,-39.062,-44.434
1789996888.502496,-46.875,-26.855,-15.625,-34.668
1789996888.506341,-67.383,-30.762,-12.207,-49.316
1789996888.510186,-52.734,-26.367,-39.551,-45.898
1789996888.514032,-41.504,-26.367,-24.414,-32.715
1789996888.517877,-22.461,-21.973,-23.926,-22.461
1789996888.522394,-24.414,-18.555,-33.203,-28.809
1789996888.526240,-62.500,-34.668,-31.738,-53.223
1789996888.530085,-69.824,-32.227,-26.855,-57.129
1789996888.533931,-34.180,-26.367,-18.066,-30.762
1789996888.537776,-36.133,-37.109,-20.020,-30.273
1789996888.541622,-50.293,-34.668,-25.879,-32.715
1789996888.545468,-36.621,-22.461,-21.973,-12.695
1789996888.549313,-27.344,-31.250,-27.832,-16.113
1789996888.553159,-33.691,-37.109,-27.344,-31.738
1789996888.557005,-57.617,-36.133,-28.320,-42.480
1789996888.560850,-62.988,-40.527,-38.086,-34.180
1789996888.564696,-53.223,-39.062,-22.949,-31.250
1789996888.569164,-48.828,-37.598,-29.785,-36.621
1789996888.573010,-43.457,-34.180,-32.227,-23.926
1789996888.576857,-34.668,-27.832,-20.508,-18.066
1789996888.580703,-35.645,-33.691,-30.762,-27.832
1789996888.584549,-23.438,-33.691,-31.250,-35.156
1789996888.588395,-17.090,-27.832,-27.832,-33.203
1789996888.592242,-42.969,-36.621,-37.598,-36.133
1789996888.596088,-53.223,-44.434,-39.551,-43.457
1789996888.599934,-40.039,-40.039,-30.273,-36.621
1789996888.603780,-45.410,-38.574,-30.273,-43.457
1789996888.607626,-62.988,-32.715,-32.227,-49.805
1789996888.611473,-59.570,-19.531,-20.508,-38.086
1789996888.615882,-45.898,-25.879,-15.137,-42.480
1789996888.619729,-43.945,-25.391,-15.625,-41.992
1789996888.623575,-66.406,-19.043,-16.602,-50.781
1789996888.627422,-81.055,-20.508,-5.859,-69.336
1789996888.631269,-83.008,-10.254,11.719,-75.195
1789996888.635115,-85.449,8.301,-3.906,-78.125
1789996888.638962,-109.863,19.531,-9.766,-97.168
1789996888.642809,-142.090,29.785,4.883,-127.441
1789996888.646656,-147.461,34.180,11.230,-148.926
1789996888.650502,-137.207,41.992,11.719,-147.949
1789996888.654349,-161.133,44.434,13.184,-171.387
1789996888.658196,-197.754,41.504,16.602,-202.148
1789996888.663031,0.000,47.363,30.273,-187.500
1789996888.666879,0.000,39.062,32.715,-179.199
1789996888.670727,0.000,38.574,25.391,-181.152
1789996888.674574,0.000,46.875,27.344,-190.430
1789996888.678422,0.000,48.340,27.344,-188.477
1789996888.682270,0.000,51.758,16.602,-172.363
1789996888.686117,0.000,35.645,9.766,-158.691
1789996888.689965,0.000,14.160,12.207,-154.297
1789996888.693812,0.000,7.812,0.000,-144.043
1789996888.697660,0.000,-1.465,14.648,-114.258
1789996888.701508,0.000,-4.395,0.488,-98.145
1789996888.705355,0.000,-16.113,-35.156,-99.121
1789996888.710147,-104.492,-23.926,-28.320,-94.727
1789996888.713995,-79.590,-4.883,-25.391,-67.383
1789996888.717844,-58.105,-15.625,-27.832,-51.270
1789996888.721693,-64.453,-40.039,-40.527,-64.941
1789996888.725541,-64.941,-34.668,-40.039,-61.523
1789996888.729389,-61.523,-40.039,-39.551,-63.477
1789996888.733238,-47.363,-53.223,-55.176,-52.246
1789996888.737086,-31.738,-50.781,-59.570,-36.621
1789996888.740935,-44.434,-52.246,-55.664,-35.156
1789996888.744783,-49.316,-66.406,-54.688,-43.457
1789996888.748632,-27.832,-65.918,-58.105,-49.805
1789996888.752480,-11.230,-55.664,-55.664,-25.879
1789996888.757121,-18.555,-51.758,-59.570,-24.414
1789996888.760970,-28.320,-51.758,-67.383,-38.086
1789996888.764819,-12.207,-54.688,-66.406,-20.020
1789996888.768668,-2.441,-64.941,-41.992,-12.695
1789996888.772518,-13.672,-70.801,-45.898,-24.414
1789996888.776367,-14.160,-61.523,-73.242,-8.301
1789996888.780216,-10.254,-51.758,-56.152,0.977
1789996888.784065,2.930,-59.570,-47.363,2.441
1789996888.787914,-10.254,-67.383,-59.570,2.441
1789996888.791764,-17.578,-59.570,-61.523,1.465
1789996888.795613,-4.395,-61.523,-54.199,-0.488
1789996888.799462,10.742,-57.129,-50.781,12.695
1789996888.804064,13.672,-57.129,-53.711,23.438
1789996888.807914,-3.906,-62.988,-63.477,7.812
1789996888.811764,3.418,-64.453,-46.875,0.488
1789996888.815614,12.695,-58.105,-41.992,4.395
1789996888.819463,23.438,-50.781,-50.781,9.277
1789996888.823313,16.113,-48.828,-48.340,8.301
1789996888.827163,5.371,-51.758,-53.223,-3.418
1789996888.831013,16.113,-52.246,-53.223,12.695
1789996888.834863,30.762,-41.504,-42.480,27.344
1789996888.838713,21.973,-45.898,-52.246,6.348
1789996888.842563,-3.906,-50.781,-42.969,1.465
1789996888.846412,-0.488,-50.293,-32.227,16.113
1789996888.850933,8.789,-54.199,-50.781,24.902
1789996888.854784,-7.812,-57.617,-56.641,9.766
1789996888.858634,-13.672,-58.594,-54.199,5.859
1789996888.862484,-8.789,-57.617,-46.875,9.766
1789996888.866335,-2.441,-57.129,-51.758,5.371
1789996888.870185,4.395,-52.734,-52.734,6.348
1789996888.874036,-10.254,-48.828,-51.758,0.000
1789996888.877886,-18.555,-55.664,-52.734,3.906
1789996888.881736,-2.441,-52.246,-43.945,12.207
1789996888.885587,17.090,-49.316,-22.461,19.043
1789996888.889437,-1.953,-60.547,-39.062,13.184
1789996888.893288,-26.855,-55.176,-64.453,-5.371
1789996888.897749,-15.137,-53.711,-62.988,-8.301
1789996888.901600,-0.488,-52.734,-54.688,-0.977
1789996888.905451,-9.766,-53.711,-47.363,-8.301
1789996888.909302,-17.090,-51.270,-47.363,-8.301
1789996888.913153,-8.301,-43.945,-41.504,-1.465
1789996888.917004,27.832,-47.852,-32.715,30.273
1789996888.920855,32.227,-32.715,-38.086,31.738
1789996888.924706,-15.137,-26.855,-40.039,-15.137
1789996888.928557,-19.531,-29.785,-42.969,-17.090
1789996888.932408,3.418,-18.066,-51.758,0.977
1789996888.936259,0.488,-16.113,-52.734,-2.930
1789996888.940109,-14.648,-26.855,-70.801,-13.184
1789996888.944490,-27.832,-28.320,-58.594,-26.855
1789996888.948342,-20.996,-22.949,-53.711,-26.855
1789996888.952193,2.441,-21.973,-78.125,-9.766
1789996888.956044,-7.324,-22.461,-66.895,-1.953
1789996888.959896,-17.090,-21.973,-56.152,-7.812
1789996888.963747,-10.742,-23.438,-50.293,-9.277
1789996888.967599,1.465,-29.297,-41.992,2.441
1789996888.971450,6.348,-24.414,-42.969,-1.953
1789996888.975301,-4.395,-10.742,-44.434,-12.207
1789996888.979153,-5.859,-10.742,-42.969,-11.230
1789996888.983004,4.883,-16.602,-44.922,-4.395
1789996888.986856,6.836,-13.184,-41.992,-0.488
1789996888.991199,-14.648,-18.555,-45.410,-11.230
1789996888.995050,-23.926,-29.785,-52.734,-34.180
1789996888.998902,-9.277,-26.367,-50.781,-35.156
1789996889.002754,-3.906,-24.414,-55.176,-24.414
1789996889.006606,-18.555,-29.785,-32.715,-28.320
1789996889.010458,-19.531,-31.250,-29.785,-30.273
1789996889.014309,-14.160,-30.762,-54.199,-26.367
1789996889.018161,-6.836,-27.344,-54.199,-15.137
1789996889.022013,-6.836,-27.832,-47.363,-19.531
1789996889.025865,-23.926,-43.945,-46.387,-15.137
1789996889.029716,-19.531,-40.039,-52.734,-12.695
1789996889.033568,-7.324,-27.832,-44.922,-21.973
1789996889.038258,-13.184,-33.691,-44.922,-14.160
1789996889.042110,-26.367,-32.227,-50.293,-23.926
1789996889.045963,-36.621,-35.156,-53.223,-35.645
1789996889.049815,-23.438,-33.691,-51.270,-29.297
1789996889.053668,-13.184,-30.762,-38.574,-21.973
1789996889.057520,-28.809,-40.039,-38.086,-23.926
1789996889.061373,-36.133,-36.621,-49.805,-20.996
1789996889.065225,-25.879,-33.203,-42.969,-17.090
1789996889.069077,-10.254,-34.180,-35.645,-14.648
1789996889.072930,-20.020,-30.273,-41.016,-14.160
1789996889.076782,-40.527,-29.297,-44.434,-20.508
1789996889.080635,-33.691,-34.668,-52.734,-31.738
1789996889.085273,-26.855,-40.527,-43.457,-25.391
1789996889.089126,-31.250,-31.738,-28.320,-16.602
1789996889.092979,-40.527,-32.715,-41.016,-25.879
1789996889.096832,-39.551,-41.504,-37.109,-25.391
1789996889.100685,-22.949,-45.410,-26.855,-24.414
1789996889.104538,-10.742,-46.387,-31.738,-26.367
1789996889.108392,-26.367,-42.969,-41.992,-30.762
1789996889.112245,-40.527,-43.945,-35.645,-23.926
1789996889.116098,-28.320,-47.363,-29.785,-11.719
1789996889.119951,-17.090,-41.016,-35.645,-21.484
1789996889.123804,-25.879,-30.762,-22.949,-34.668
1789996889.127657,-26.855,-30.273,-37.598,-31.250
1789996889.132250,-27.832,-38.086,-50.781,-33.691
1789996889.136104,-39.062,-42.480,-47.363,-36.621
1789996889.139958,-43.457,-38.086,-46.387,-38.086
1789996889.143811,-43.945,-41.504,-41.992,-41.992
1789996889.147665,-35.645,-39.551,-44.922,-29.785
1789996889.151519,-13.184,-25.391,-51.270,-9.766
1789996889.155373,-21.484,-30.762,-37.598,-15.137
1789996889.159226,-53.711,-40.039,-27.832,-33.203
1789996889.163080,-58.105,-39.551,-34.180,-37.598
1789996889.166934,-34.180,-45.898,-29.785,-32.715
1789996889.170788,-24.902,-48.340,-22.461,-27.832
1789996889.174641,-36.133,-29.785,-23.438,-26.855
1789996889.179166,-42.969,-31.250,-6.348,-26.367
1789996889.183021,-36.621,-44.922,-20.020,-24.414
1789996889.186875,-20.508,-33.691,-37.109,-13.672
1789996889.190729,-32.715,-22.461,-20.508,-11.719
1789996889.194584,-44.922,-27.344,-30.273,-20.996
1789996889.198438,-36.133,-37.598,-35.645,-16.113
1789996889.202292,-24.414,-42.969,-33.203,-15.137
1789996889.206146,-25.391,-41.016,-34.668,-24.902
1789996889.210001,-31.738,-31.250,-33.691,-12.207
1789996889.213855,-27.344,-28.320,-25.391,-10.742
1789996889.217709,-21.973,-31.250,-29.297,-19.531
1789996889.221564,-40.039,-35.156,-40.527,-22.461
1789996889.226011,-51.270,-33.203,-30.762,-21.973
1789996889.229866,-44.922,-27.832,-27.832,-31.250
1789996889.233721,-48.340,-29.785,-34.668,-31.250
1789996889.237576,-52.734,-33.691,-22.461,-28.809
1789996889.241430,-61.523,-25.391,-29.785,-46.387
1789996889.245285,-63.477,-20.508,-34.668,-48.828
1789996889.249140,-55.664,-24.414,-30.273,-49.316
1789996889.252995,-57.129,-17.578,-23.438,-48.828
1789996889.256850,-77.637,-8.789,-15.625,-62.988
1789996889.260704,-87.891,-6.836,-17.578,-89.844
1789996889.264559,-99.609,2.441,-11.230,-100.586
1789996889.268414,-116.211,22.461,-9.766,-108.398
1789996889.272814,-132.812,34.180,0.977,-125.488
1789996889.276669,-157.715,43.945,3.906,-149.902
1789996889.280524,-173.340,53.223,-4.883,-163.574
1789996889.284379,-178.711,53.223,15.625,-181.641
1789996889.288234,-185.547,58.594,28.809,-198.242
1789996889.292089,-202.637,61.035,5.859,-208.008
1789996889.295945,-205.566,50.781,7.324,-208.496
1789996889.299800,-189.941,50.781,16.113,-188.965
1789996889.303655,-184.082,56.152,16.602,-183.594
1789996889.307510,-178.711,54.688,16.602,-173.340
1789996889.311366,-168.945,41.504,13.184,-163.086
1789996889.315221,-149.414,16.602,0.977,-153.320
1789996889.319574,-131.836,8.301,-1.465,-133.789
1789996889.323430,-144.043,0.488,-5.859,-127.441
1789996889.327285,-145.508,-8.789,-18.555,-133.789
1789996889.331141,-118.164,-15.137,-17.090,-112.793
1789996889.334996,-94.238,-21.484,-27.832,-87.891
1789996889.338852,-86.426,-20.996,-31.250,-88.867
1789996889.342707,-78.613,-31.250,-31.738,-74.219
1789996889.346563,-66.406,-46.387,-28.809,-59.570
1789996889.350419,-52.734,-40.039,-30.273,-47.852
1789996889.354274,-47.363,-33.203,-39.551,-29.297
1789996889.358130,-55.176,-47.852,-46.387,-41.992
1789996889.361985,-52.246,-52.734,-46.875,-53.223
1789996889.366307,-26.367,-48.340,-43.945,-30.273
1789996889.370162,-12.207,-43.945,-45.898,-19.531
1789996889.374018,-24.414,-45.410,-50.293,-27.832
1789996889.377874,-28.320,-63.965,-32.227,-28.320
1789996889.381730,-12.695,-63.477,-30.762,-15.625
1789996889.385586,0.977,-59.082,-58.594,0.977
1789996889.389442,-7.324,-69.824,-47.363,0.977
1789996889.393298,-17.578,-55.664,-39.551,-8.301
1789996889.397154,-12.207,-42.969,-45.898,-5.859
1789996889.401010,2.930,-52.734,-47.852,8.789
1789996889.404866,1.465,-63.477,-49.805,2.441
1789996889.408722,-18.555,-51.270,-54.199,-11.230
1789996889.413367,-16.602,-49.316,-50.781,-4.883
1789996889.417223,12.695,-59.082,-33.691,14.160
1789996889.421080,7.324,-62.988,-31.738,10.742
1789996889.424936,-19.531,-65.430,-47.852,-9.766
1789996889.428793,-18.066,-60.547,-53.711,-5.371
1789996889.432650,5.371,-57.129,-51.270,7.324
1789996889.436506,12.207,-62.500,-39.062,18.066
1789996889.440363,-2.930,-45.410,-48.828,14.160
1789996889.444219,6.836,-34.668,-43.457,20.508
1789996889.448076,22.949,-36.621,-40.039,26.855
1789996889.451932,15.137,-47.852,-53.223,15.137
1789996889.455789,2.930,-42.969,-42.480,12.695
1789996889.460386,-5.859,-41.504,-42.969,-9.766
1789996889.464243,-5.371,-66.895,-50.293,-0.977
1789996889.468100,12.695,-68.359,-43.457,8.301
1789996889.471957,11.230,-56.152,-41.016,3.418
1789996889.475815,-3.418,-47.852,-37.598,12.695
1789996889.479672,-0.488,-36.621,-24.414,12.207
1789996889.483529,9.766,-35.156,-27.344,16.113
1789996889.487386,22.461,-28.809,-48.340,18.066
1789996889.491243,6.836,-38.574,-45.898,12.207
1789996889.495100,-0.977,-44.434,-42.480,18.066
1789996889.498957,23.438,-29.297,-36.621,24.414
1789996889.502815,22.461,-35.645,-28.809,19.531
1789996889.507345,-2.930,-48.340,-38.086,-3.418
1789996889.511203,-14.648,-48.828,-53.711,-0.488
1789996889.515060,-8.301,-46.875,-52.246,0.488
1789996889.518918,7.812,-43.457,-49.805,0.977
1789996889.522775,2.441,-45.410,-48.828,2.441
1789996889.526633,-12.695,-46.875,-26.855,-1.953
1789996889.530491,-5.859,-35.156,-26.367,4.883
1789996889.534348,10.254,-33.691,-56.152,14.648
1789996889.538206,5.859,-44.434,-54.199,22.949
1789996889.542064,-6.836,-43.945,-44.434,-0.488
1789996889.545921,-10.254,-38.086,-39.062,-8.301
1789996889.549779,3.906,-31.738,-46.387,5.371
1789996889.554258,10.742,-37.598,-45.898,11.719
1789996889.558116,-3.418,-41.504,-36.133,10.742
1789996889.561974,-3.418,-37.109,-46.387,-0.977
1789996889.565832,0.488,-43.457,-44.922,0.977
1789996889.569690,-6.348,-45.410,-43.457,0.488
1789996889.573548,-20.996,-44.434,-51.270,-10.742
1789996889.577406,-34.668,-45.410,-40.527,-21.973
1789996889.581264,-23.438,-42.480,-47.852,-14.160
1789996889.585123,2.930,-41.992,-51.270,-3.418
1789996889.588981,0.488,-48.828,-51.270,-15.625
1789996889.592839,-24.414,-50.781,-51.270,-25.879
1789996889.596697,-20.020,-40.039,-45.410,-20.996
1789996889.601132,-1.953,-26.367,-33.203,-9.766
1789996889.604990,8.789,-36.133,-22.461,10.254
1789996889.608849,3.418,-46.387,-29.785,16.113
1789996889.612707,-34.668,-39.062,-41.504,-16.602
1789996889.616566,-36.621,-39.062,-48.340,-30.273
1789996889.620424,-6.348,-24.902,-48.340,-8.789
1789996889.624283,-17.578,-27.344,-42.480,-10.742
1789996889.628141,-25.879,-31.250,-44.434,-10.742
1789996889.632000,-6.348,-20.996,-54.688,-8.301
1789996889.635859,0.488,-23.438,-39.551,-15.625
1789996889.639717,-21.484,-34.668,-40.039,-26.367
1789996889.643576,-31.250,-37.109,-61.035,-34.180
1789996889.647960,-26.855,-32.227,-41.992,-30.762
1789996889.651819,-21.484,-34.180,-41.992,-21.973
1789996889.655678,-25.879,-46.875,-47.852,-34.180
1789996889.659537,-29.297,-44.922,-44.434,-31.250
1789996889.663396,-17.578,-38.574,-39.062,-29.785
1789996889.667255,-8.301,-45.898,-44.434,-30.273
1789996889.671113,-3.418,-31.738,-21.484,-6.348
1789996889.674973,-14.648,-23.926,-24.414,-13.672
1789996889.678831,-24.902,-38.086,-61.523,-24.902
1789996889.682690,-29.785,-37.109,-54.688,-16.602
1789996889.686549,-25.879,-40.527,-46.875,-25.391
1789996889.690408,-19.531,-49.805,-45.898,-31.738
1789996889.694711,-24.902,-36.133,-44.434,-32.227
1789996889.698570,-23.438,-31.250,-41.992,-22.461
1789996889.702429,-13.672,-29.785,-42.969,-22.949
1789996889.706289,-20.020,-25.391,-28.809,-20.508
1789996889.710148,-30.273,-29.785,-37.109,-18.066
1789996889.714007,-32.715,-36.621,-41.016,-24.902
1789996889.717866,-22.461,-41.992,-32.715,-6.348
1789996889.721726,-12.207,-20.508,-31.738,0.977
1789996889.725585,-29.785,-31.250,-30.762,-16.113
1789996889.729444,-47.363,-49.805,-44.922,-24.414
1789996889.733303,-37.109,-32.715,-41.016,-26.855
1789996889.737163,-28.809,-26.367,-35.156,-28.809
1789996889.741446,-44.922,-34.180,-34.668,-26.367
1789996889.745306,-39.062,-42.480,-34.668,-19.531
1789996889.749165,-27.832,-46.875,-7.324,-15.137
1789996889.753025,-18.555,-26.855,-12.207,-6.836
1789996889.756885,-23.926,-21.973,-48.828,-14.160
1789996889.760744,-49.316,-36.133,-41.504,-21.973
1789996889.764604,-38.574,-22.461,-37.598,-18.555
1789996889.768463,-15.137,-17.090,-35.156,-24.414
1789996889.772323,-10.742,-18.066,-29.297,-22.461
1789996889.776182,-20.508,-20.020,-25.879,-15.137
1789996889.780042,-33.691,-31.738,-31.250,-24.902
1789996889.783901,-39.062,-32.227,-36.133,-37.109
1789996889.788488,-41.992,-26.367,-38.086,-27.344
1789996889.792349,-41.992,-18.066,-33.691,-18.066
1789996889.796209,-42.480,-21.484,-23.438,-36.133
1789996889.800069,-40.527,-24.902,-21.973,-46.875
1789996889.803929,-34.668,-22.461,-45.410,-41.504
1789996889.807789,-47.363,-19.043,-38.086,-53.711
1789996889.811649,-57.129,-6.836,-30.762,-54.688
1789996889.815509,-53.223,-7.324,-30.273,-51.270
1789996889.819369,-55.664,-16.113,-26.367,-59.570
1789996889.823229,-78.613,-15.625,-21.484,-74.219
1789996889.827089,-92.285,-15.625,-14.648,-79.102
1789996889.830949,-93.262,-5.859,-18.555,-94.238
1789996889.835506,-90.332,14.160,-7.324,-104.004
1789996889.839366,-118.164,4.883,-11.230,-107.422
1789996889.843227,-155.273,7.812,11.230,-130.371
1789996889.847087,-148.926,53.711,22.461,-127.441
1789996889.850948,-157.715,57.129,0.488,-141.602
1789996889.854809,-177.246,48.340,2.441,-179.199
1789996889.858669,-191.406,57.617,3.418,-193.848
1789996889.862530,-201.172,50.293,10.254,-197.754
1789996889.866390,-205.078,57.617,14.648,-192.871
1789996889.870251,-202.637,61.035,15.137,-182.129
1789996889.874111,-210.938,48.828,24.414,-191.406
1789996889.877972,-198.242,56.152,15.625,-182.617
1789996889.882789,-184.082,43.457,1.465,-173.828
1789996889.886650,-179.199,23.438,1.953,-175.781
1789996889.890512,-153.320,2.441,-8.301,-154.785
1789996889.894373,-156.738,-10.742,3.906,-156.250
1789996889.898234,-146.973,-11.719,-4.395,-153.320
1789996889.902095,-107.910,-13.184,-33.691,-122.070
1789996889.905957,-95.703,-11.719,-17.090,-107.422
1789996889.909818,-100.098,-25.879,-17.090,-100.586
1789996889.913679,-89.355,-22.461,-25.391,-88.379
1789996889.917540,-61.523,-27.832,-28.809,-73.242
1789996889.921402,-46.875,-31.738,-34.180,-69.824
1789996889.925263,-50.293,-33.691,-25.879,-58.105
1789996889.929669,-59.570,-43.945,-31.738,-51.270
1789996889.933531,-51.270,-47.363,-47.852,-42.969
1789996889.937392,-19.043,-46.875,-48.828,-28.320
1789996889.941254,-15.625,-54.688,-42.480,-31.738
1789996889.945115,-30.762,-64.453,-40.527,-24.902
1789996889.948977,-27.344,-69.336,-59.570,-14.160
1789996889.952839,-12.695,-65.918,-55.176,-16.113
1789996889.956700,-19.043,-52.246,-48.340,-15.137
1789996889.960562,-32.227,-50.781,-51.270,-18.066
1789996889.964424,-18.555,-56.641,-50.781,-22.949
1789996889.968285,-8.789,-62.988,-46.875,-10.742
1789996889.972147,-7.812,-66.895,-52.246,0.000
1789996889.976515,-11.230,-63.477,-55.664,5.859
1789996889.980377,-14.160,-67.383,-48.828,-1.953
1789996889.984239,1.953,-61.035,-52.734,0.000
1789996889.988101,11.230,-49.805,-51.270,-1.953
1789996889.991963,-3.418,-59.570,-52.734,-18.555
1789996889.995825,-11.719,-62.988,-65.918,-17.090
1789996889.999687,10.742,-54.688,-55.176,-1.953
1789996890.003549,26.855,-51.758,-53.711,8.789
1789996890.007411,16.602,-55.176,-58.105,-1.953
1789996890.011273,4.395,-53.711,-53.711,-13.672
1789996890.015135,-0.977,-61.035,-45.410,-0.977
1789996890.018997,14.160,-61.035,-41.504,14.160
1789996890.023343,9.766,-62.500,-50.293,5.859
1789996890.027206,5.859,-55.176,-42.969,1.953
1789996890.031068,18.555,-44.434,-34.668,16.602
1789996890.034930,0.488,-57.129,-53.223,5.859
1789996890.038793,-14.648,-71.289,-50.293,-9.277
1789996890.042655,-14.160,-75.195,-53.223,4.395
1789996890.046517,-13.672,-65.918,-56.152,19.531
1789996890.050380,2.441,-60.547,-41.992,33.691
1789996890.054242,11.230,-57.617,-48.828,27.832
1789996890.058104,-4.395,-64.941,-44.922,5.371
1789996890.061966,-16.113,-73.242,-46.387,-2.441
1789996890.065829,-9.277,-71.289,-52.246,1.953
1789996890.070116,1.465,-76.172,-41.992,6.836
1789996890.073978,-6.348,-69.824,-42.969,1.465
1789996890.077841,-3.418,-58.105,-46.387,0.977
1789996890.081703,8.789,-56.641,-41.992,3.418
1789996890.085566,7.812,-53.711,-33.691,8.789
1789996890.089428,-6.836,-50.781,-27.344,6.836
1789996890.093291,-28.809,-57.617,-46.875,2.441
1789996890.097154,-25.391,-60.059,-45.410,6.836
1789996890.101016,-6.836,-62.012,-41.504,8.789
1789996890.104879,-4.395,-59.570,-38.086,8.301
1789996890.108742,-17.090,-55.664,-31.738,0.488
1789996890.112604,-20.508,-52.734,-39.551,-4.883
1789996890.116864,-17.090,-48.340,-41.016,-4.883
1789996890.120727,-17.578,-53.223,-33.691,-1.465
1789996890.124590,-20.020,-53.711,-31.738,-6.348
1789996890.128453,-23.926,-50.781,-28.320,-12.207
1789996890.132316,-18.066,-47.852,-40.039,-7.812
1789996890.136179,-12.207,-49.316,-17.578,9.766
1789996890.140042,-28.320,-51.270,-8.789,-4.883
1789996890.143905,-37.109,-44.434,-43.945,-18.555
1789996890.147768,-37.109,-48.340,-39.551,-20.996
1789996890.151630,-25.391,-53.223,-47.363,-12.207
1789996890.155493,-21.973,-43.945,-44.922,-6.348
1789996890.159356,-36.621,-37.598,-34.668,-19.531
1789996890.163898,-27.832,-41.504,-39.551,-13.184
1789996890.167762,-10.254,-49.805,-43.457,-6.836
1789996890.171625,-0.977,-48.828,-40.527,-3.418
1789996890.175488,-11.230,-49.805,-34.668,-8.789
1789996890.179352,-26.367,-54.688,-38.574,-5.371
1789996890.183215,-24.902,-41.992,-34.180,-5.859
1789996890.187078,-22.461,-30.273,-39.551,-7.812
1789996890.190942,-53.223,-41.504,-34.180,-22.461
1789996890.194805,-62.500,-47.363,-33.691,-38.086
1789996890.198668,-40.527,-41.992,-62.012,-28.320
1789996890.202532,-29.297,-41.992,-47.363,-29.297
1789996890.206395,-41.016,-39.062,-32.715,-23.926
1789996890.210922,0.000,-40.527,-38.086,-29.297
1789996890.214786,0.000,-38.086,-42.480,-34.668
1789996890.218650,0.000,-29.785,-41.016,-25.391
1789996890.222514,0.000,-33.691,-38.086,-32.715
1789996890.226377,0.000,-40.039,-41.992,-31.250
1789996890.230241,0.000,-38.574,-52.246,-25.879
1789996890.234105,0.000,-30.762,-56.641,-27.832
1789996890.237969,0.000,-23.438,-50.781,-29.785
1789996890.241832,0.000,-20.996,-23.438,-29.297
1789996890.245696,0.000,-7.324,-30.273,-18.555
1789996890.249560,0.000,-10.742,-42.480,-12.695
1789996890.253424,0.000,-30.273,-37.109,-14.160
1789996890.257843,-19.531,-41.016,-50.781,-19.043
1789996890.261707,-41.504,-41.504,-53.223,-23.926
1789996890.265571,-39.551,-31.738,-42.969,-41.016
1789996890.269435,-15.625,-27.344,-34.668,-28.809
1789996890.273299,-21.973,-31.738,-33.203,-24.414
1789996890.277164,-31.738,-28.320,-42.480,-27.344
1789996890.281028,-32.715,-33.203,-44.922,-27.344
1789996890.284892,-21.484,-37.109,-49.805,-31.738
1789996890.288756,-21.484,-32.227,-45.898,-17.578
1789996890.292620,-33.691,-26.367,-37.598,-19.043
1789996890.296484,-24.414,-28.809,-42.480,-36.133
1789996890.300348,-19.043,-43.457,-43.945,-39.551
1789996890.304761,-18.555,-41.992,-40.527,-31.738
1789996890.308626,-35.645,-30.273,-50.293,-25.391
1789996890.312490,-54.199,-36.621,-45.898,-35.156
1789996890.316355,-38.574,-39.551,-44.922,-41.016
1789996890.320219,-20.020,-29.297,-42.480,-22.949
1789996890.324084,-26.855,-33.691,-20.020,-31.250
1789996890.327948,-32.715,-31.250,-39.551,-36.621
1789996890.331813,-26.367,-29.297,-52.246,-20.508
1789996890.335677,-27.344,-27.344,-37.598,-14.648
1789996890.339542,-34.180,-32.715,-45.898,-29.785
1789996890.343406,-45.898,-37.598,-50.293,-51.758
1789996890.347271,-50.781,-29.297,-40.527,-45.410
1789996890.351629,-20.508,-33.691,-34.668,-21.484
1789996890.355493,-14.648,-40.527,-37.109,-27.344
1789996890.359358,-23.438,-29.785,-24.902,-34.180
1789996890.363223,-26.855,-26.367,-27.832,-28.320
1789996890.367088,-41.504,-41.504,-41.504,-38.574
1789996890.370953,-47.852,-47.363,-46.387,-36.133
1789996890.374818,-57.617,-47.852,-50.781,-31.250
1789996890.378682,-63.965,-44.434,-32.227,-40.039
1789996890.382547,-49.805,-44.434,-21.484,-36.621
1789996890.386412,-26.855,-39.062,-43.457,-28.320
1789996890.390277,-32.227,-34.668,-41.504,-21.484
1789996890.394142,-46.875,-37.598,-40.527,-32.227
1789996890.398451,-31.250,-30.762,-29.297,-36.621
1789996890.402316,-13.672,-39.551,-35.156,-34.180
1789996890.406181,-25.391,-45.410,-41.016,-32.715
1789996890.410046,-35.645,-37.109,-28.809,-19.043
1789996890.413911,-41.992,-33.203,-29.297,-31.250
1789996890.417777,-32.227,-44.434,-33.691,-44.922
1789996890.421642,-26.367,-48.828,-33.203,-29.785
1789996890.425507,-41.504,-34.180,-31.738,-28.320
1789996890.429372,-50.781,-32.715,-34.180,-44.922
1789996890.433237,-41.992,-34.668,-37.598,-46.387
1789996890.437102,-36.621,-33.203,-25.391,-43.945
1789996890.440967,-57.129,-37.598,-43.457,-53.711
1789996890.445236,-72.754,-46.387,-54.199,-53.223
1789996890.449101,-58.594,-47.852,-42.480,-45.898
1789996890.452967,-33.203,-46.387,-46.875,-47.363
1789996890.456832,-36.621,-49.805,-50.781,-42.480
1789996890.460698,-43.457,-41.504,-44.434,-43.945
1789996890.464563,-33.203,-31.250,-23.926,-37.598
1789996890.468428,-14.648,-32.715,-24.414,-22.461
1789996890.472294,-10.254,-38.574,-39.062,-23.438
1789996890.476159,-30.273,-41.016,-38.574,-34.180
1789996890.480025,-45.410,-44.922,-41.016,-44.922
1789996890.483890,-41.504,-48.828,-41.992,-38.574
1789996890.487755,-48.340,-48.828,-40.527,-25.879
1789996890.491987,-61.035,-40.527,-35.645,-28.320
1789996890.495853,-61.523,-40.527,-14.160,-27.832
1789996890.499719,-55.176,-42.480,-30.762,-18.066
1789996890.503584,-41.992,-39.551,-48.340,-13.672
1789996890.507450,-46.387,-37.109,-43.457,-31.738
1789996890.511316,-53.711,-36.133,-50.781,-45.898
1789996890.515181,-44.922,-41.504,-46.387,-41.992
1789996890.519047,-21.973,-38.086,-38.086,-33.691
1789996890.522912,-21.484,-35.156,-43.457,-41.992
1789996890.526778,-38.574,-41.016,-49.316,-47.852
1789996890.530643,-40.039,-43.457,-40.039,-43.945
1789996890.534509,-16.602,-32.227,-33.203,-39.551
1789996890.539011,-14.648,-28.809,-34.668,-27.832
1789996890.542877,-37.598,-27.832,-33.691,-33.203
1789996890.546743,-32.227,-29.785,-13.672,-39.062
1789996890.550609,-27.832,-39.062,-40.527,-44.434
1789996890.554475,-33.691,-31.250,-58.594,-38.574
1789996890.558341,-49.316,-28.809,-43.457,-34.668
1789996890.562207,-57.617,-29.297,-47.363,-47.363
1789996890.566073,-49.316,-25.391,-36.133,-43.945
1789996890.569939,-34.668,-21.973,-40.039,-37.109
1789996890.573805,-48.828,-21.973,-43.457,-41.016
1789996890.577671,-68.848,-30.273,-40.527,-45.898
1789996890.581537,-48.828,-31.738,-41.504,-45.410
1789996890.585996,-27.832,-26.367,-37.598,-46.875
1789996890.589862,-44.434,-28.320,-34.180,-46.875
1789996890.593728,-49.316,-21.484,-37.598,-33.691
1789996890.597595,-47.363,-21.973,-22.461,-37.109
1789996890.601461,-43.945,-28.320,-20.996,-32.227
1789996890.605327,-38.086,-27.832,-45.410,-25.391
1789996890.609194,-53.223,-30.762,-38.086,-37.109
1789996890.613060,-49.316,-28.320,-36.133,-40.039
1789996890.616927,-36.621,-31.738,-42.480,-33.691
1789996890.620793,-21.484,-29.297,-43.945,-13.184
1789996890.624659,-37.109,-30.273,-44.434,-21.973
1789996890.628526,-54.688,-33.691,-39.551,-44.434
1789996890.632929,-42.969,-29.785,-32.715,-31.250
1789996890.636796,-31.738,-34.668,-42.969,-27.832
1789996890.640662,-49.316,-33.203,-17.090,-38.086
1789996890.644529,-60.547,-30.273,-10.742,-26.367
1789996890.648396,-42.969,-24.414,-43.457,-20.996
1789996890.652263,-22.461,-14.648,-43.457,-20.996
1789996890.656129,-21.484,-18.555,-43.945,-21.484
1789996890.659996,-51.270,-29.297,-47.363,-41.504
1789996890.663863,-54.199,-30.762,-40.039,-32.227
1789996890.667729,-34.668,-28.809,-32.715,-20.020
1789996890.671596,-28.320,-26.367,-35.156,-35.156
1789996890.675463,-43.945,-24.414,-29.785,-39.551
1789996890.679833,-49.805,-28.320,-41.504,-44.434
1789996890.683700,-35.645,-39.062,-42.969,-47.852
1789996890.687567,-24.414,-40.039,-38.574,-36.133
1789996890.691434,-40.527,-25.879,-39.551,-38.574
1789996890.695302,-50.781,-21.484,-27.832,-41.992
1789996890.699168,-38.574,-24.902,-45.898,-29.785
1789996890.703036,-27.344,-23.438,-43.457,-31.738
1789996890.706903,-36.133,-23.438,-31.738,-21.484
1789996890.710770,-53.223,-25.879,-33.203,-27.832
1789996890.714637,-41.504,-21.973,-39.551,-50.781
1789996890.718504,-34.180,-29.297,-40.039,-34.668
1789996890.722371,-54.199,-35.645,-36.133,-29.785
1789996890.726698,-62.500,-32.715,-36.133,-41.992
1789996890.730566,-58.105,-28.809,-41.016,-39.062
1789996890.734433,-37.598,-20.020,-22.949,-25.879
1789996890.738300,-31.250,-23.438,-24.902,-31.250
1789996890.742167,-57.129,-25.391,-49.316,-40.039
1789996890.746035,-53.223,-22.949,-39.062,-35.645
1789996890.749902,-34.180,-23.926,-37.109,-34.668
1789996890.753769,-20.508,-28.809,-29.785,-22.461
1789996890.757637,-16.113,-32.715,-19.043,-19.043
1789996890.761504,-38.086,-31.738,-29.785,-41.016
1789996890.765371,-41.504,-29.785,-38.574,-48.828
1789996890.769239,-28.809,-30.762,-50.781,-40.039
1789996890.773529,-31.738,-30.273,-48.340,-38.574
1789996890.777396,-41.016,-28.320,-35.645,-50.781
1789996890.781264,-39.551,-28.320,-28.320,-43.457
1789996890.785131,-32.715,-42.969,-27.344,-32.227
1789996890.788999,-29.785,-41.504,-5.859,-33.203
1789996890.792866,-41.016,-32.227,-19.531,-42.969
1789996890.796734,-42.480,-32.227,-51.758,-38.086
1789996890.800602,-23.926,-24.902,-25.879,-5.371
1789996890.804469,-25.879,-26.367,-22.461,1.953
1789996890.808337,-42.969,-29.297,-35.156,-21.973
1789996890.812204,-42.480,-26.855,-38.086,-37.598
1789996890.816072,-14.160,-16.602,-45.898,-30.762
1789996890.820628,25.879,-27.344,-46.875,4.883
1789996890.824496,10.254,-48.828,-31.250,3.418
1789996890.828364,-35.156,-50.293,-23.438,-34.180
1789996890.832232,-46.387,-44.922,-9.766,-40.527
1789996890.836100,-40.527,-43.457,-10.254,-40.039
1789996890.839968,-34.668,-41.016,1.953,-47.852
1789996890.843836,-39.062,-48.340,16.602,-36.133
1789996890.847704,-48.828,-58.594,-7.812,-36.621
1789996890.851572,-58.594,-61.035,-2.930,-46.875
1789996890.855440,-61.035,-71.289,6.348,-28.809
1789996890.859308,-90.332,-77.148,7.324,-37.598
1789996890.863176,-101.074,-70.312,8.301,-50.293
1789996890.867385,-73.242,-69.336,4.395,-34.668
1789996890.871253,-67.871,-69.824,6.348,-31.738
1789996890.875122,-78.613,-74.707,12.207,-37.598
1789996890.878990,-85.449,-83.984,9.277,-30.762
1789996890.882858,-67.383,-83.496,17.090,-21.484
1789996890.886726,-66.406,-83.496,21.973,-25.391
1789996890.890594,-79.590,-81.543,9.277,-41.016
1789996890.894462,-61.523,-78.613,35.156,-30.762
1789996890.898331,-58.105,-84.961,36.133,-32.715
1789996890.902199,-43.945,-77.148,-7.812,-28.320
1789996890.906067,-29.785,-62.988,-3.906,-17.578
1789996890.909935,-39.062,-62.012,10.254,-28.320
1789996890.914407,-43.457,-64.941,5.859,-23.438
1789996890.918276,-48.828,-65.430,0.488,-26.367
1789996890.922144,-45.898,-67.871,-2.441,-20.996
1789996890.926013,-34.668,-65.918,-0.977,-18.066
1789996890.929881,-37.109,-56.641,-6.348,-27.832
1789996890.933750,-36.133,-50.781,-7.324,-17.578
1789996890.937618,-40.039,-45.898,-20.020,-2.441
1789996890.941487,-53.223,-45.898,-11.719,-6.348
1789996890.945355,-64.941,-51.758,0.488,-15.137
1789996890.949224,-52.734,-53.223,-29.297,-1.953
1789996890.953092,-38.574,-51.758,-22.949,-3.418
1789996890.956961,-40.039,-57.617,-18.066,-18.066
1789996890.961381,-39.551,-58.105,-21.484,-21.973
1789996890.965250,-41.504,-50.781,-19.043,-17.578
1789996890.969119,-40.039,-47.363,-19.043,-9.277
1789996890.972987,-26.855,-39.551,-13.184,-0.977
1789996890.976856,-32.227,-41.016,-18.555,-9.766
1789996890.980725,-32.227,-40.039,-20.508,-16.113
1789996890.984594,-23.926,-46.387,-17.578,-10.742
1789996890.988463,-8.301,-45.410,-35.156,-5.371
1789996890.992332,-12.207,-30.273,-22.461,-5.859
1789996890.996201,-11.230,-30.762,-4.883,-8.789
1789996891.000070,8.301,-41.504,-27.344,-7.812
1789996891.003938,-1.465,-37.598,-22.949,-3.906
1789996891.008348,4.395,-17.578,3.906,4.395
1789996891.012217,-2.441,-34.180,-21.484,-15.137
1789996891.016086,-22.461,-27.832,-22.949,-0.977
1789996891.019956,-19.531,-13.672,13.184,30.762
1789996891.023825,-10.254,-17.578,21.973,37.598
1789996891.027694,-51.758,-24.902,-1.953,4.883
1789996891.031563,-64.941,-27.832,5.859,-17.578
1789996891.035432,-54.199,-32.227,-1.953,-25.391
1789996891.039302,-65.918,-50.781,-59.082,-28.320
1789996891.043171,-64.453,-58.105,-52.246,-21.484
1789996891.047040,-105.957,-98.633,-79.102,-84.961
1789996891.050909,-99.121,-98.145,-85.449,-97.168
1789996891.055246,-50.293,-64.941,-62.500,-51.270
1789996891.059116,-46.387,-59.082,-53.711,-46.387
1789996891.062985,-48.340,-53.223,-48.828,-45.898
1789996891.066855,-27.344,-44.434,-41.504,-37.109
1789996891.070724,-23.926,-50.293,-39.062,-35.156
1789996891.074594,-37.598,-50.293,-44.922,-33.203
1789996891.078463,-29.297,-33.203,-2.930,-20.996
1789996891.082333,-20.020,-28.809,1.465,-4.395
1789996891.086202,-28.809,-50.781,-43.457,-13.672
1789996891.090071,-42.480,-54.688,-46.387,-34.180
1789996891.093941,-57.617,-42.480,-36.133,-37.109
1789996891.097811,-59.570,-45.898,-42.969,-46.387
1789996891.102129,0.000,-44.434,-43.945,-42.480
1789996891.105999,0.000,-36.133,-28.809,-22.461
1789996891.109869,0.000,-54.199,-25.879,-17.090
1789996891.113738,0.000,-59.570,-19.531,8.301
1789996891.117608,0.000,-32.715,-25.391,5.859
1789996891.121478,0.000,-8.301,-46.387,-24.414
1789996891.125347,0.000,-10.254,-47.363,-53.711
1789996891.129217,0.000,-15.137,-58.105,-64.941
1789996891.133087,0.000,1.953,-80.078,-55.664
1789996891.136956,0.000,6.836,-81.055,-56.641
1789996891.140826,0.000,10.254,-90.332,-66.406
1789996891.144696,0.000,13.184,-91.797,-79.590
1789996891.148969,-29.785,15.625,-88.867,-79.102
1789996891.152839,-7.812,14.648,-87.402,-76.172
1789996891.156709,-9.766,16.113,-95.703,-73.730
1789996891.160579,-24.414,26.855,-97.168,-78.613
1789996891.164449,-29.785,20.996,-84.473,-85.449
1789996891.168319,-15.137,15.137,-81.055,-77.148
1789996891.172189,6.348,18.555,-88.867,-58.105
1789996891.176059,-21.484,19.043,-62.988,-49.805
1789996891.179929,-43.457,14.648,-72.266,-47.852
1789996891.183799,-26.855,10.742,-99.121,-42.480
1789996891.187669,-17.090,6.836,-84.473,-36.621
1789996891.191539,-24.414,6.836,-75.195,-34.668
1789996891.195783,-41.992,5.371,-65.918,-43.945
1789996891.199653,-25.391,2.930,-63.477,-42.480
1789996891.203523,-8.301,4.395,-71.289,-31.738
1789996891.207393,-10.254,1.953,-69.336,-44.922
1789996891.211264,-9.766,5.859,-53.223,-49.805
1789996891.215134,0.000,12.207,-44.922,-35.645
1789996891.219004,9.766,4.395,-44.434,-24.414
1789996891.222874,-2.930,-6.348,-50.781,-26.855
1789996891.226744,-29.785,-17.090,-55.176,-42.480
1789996891.230614,-29.785,-6.836,-59.082,-41.504
1789996891.234485,0.000,0.977,-53.711,-24.414
1789996891.238355,27.344,-4.395,-41.504,-11.719
1789996891.242549,0.488,-0.977,-35.156,-20.020
1789996891.246419,-43.945,-9.277,-35.645,-33.691
1789996891.250289,-42.969,-25.391,-50.781,-37.109
1789996891.254160,-41.016,-17.578,-55.664,-41.504
1789996891.258030,-50.293,-7.812,-49.316,-52.246
1789996891.261901,-48.828,-5.859,-51.270,-49.805
1789996891.265771,-42.969,-5.371,-40.039,-43.457
1789996891.269641,-19.531,2.930,-37.109,-20.508
1789996891.273512,-35.156,-16.113,-20.508,-28.809
1789996891.277382,-61.035,-29.297,-34.180,-66.406
1789996891.281252,-42.969,-12.695,-55.664,-58.105
1789996891.285123,-30.273,-12.695,-42.480,-46.387
1789996891.289553,-27.832,-20.020,-53.223,-46.875
1789996891.293424,-40.039,-18.555,-52.734,-54.688
1789996891.297295,-47.363,-9.277,-48.828,-57.617
1789996891.301165,-24.902,-9.766,-46.387,-47.363
1789996891.305036,-7.812,-12.207,-31.250,-39.062
1789996891.308907,-39.551,-17.578,-35.645,-49.316
1789996891.312777,-66.895,-25.391,-51.758,-64.453
1789996891.316648,-69.336,-35.645,-44.922,-66.406
1789996891.320519,-46.875,-34.180,-46.387,-46.875
1789996891.324389,-44.434,-42.480,-28.320,-32.227
1789996891.328260,-42.969,-32.715,-21.484,-42.480
1789996891.332131,-6.836,-19.043,-43.457,-30.762
1789996891.336547,-1.953,-24.902,-36.133,-15.625
1789996891.340418,-36.621,-27.832,-44.922,-42.969
1789996891.344289,-60.547,-38.086,-43.945,-64.941
1789996891.348160,-56.641,-39.551,-36.621,-49.316
1789996891.352031,-35.156,-35.156,-36.621,-31.250
1789996891.355902,-24.902,-37.109,-32.715,-34.180
1789996891.359773,-40.039,-35.156,-36.133,-39.062
1789996891.363644,-50.781,-28.809,-34.668,-36.133
1789996891.367515,-35.156,-27.344,-30.273,-23.926
1789996891.371386,-26.367,-36.133,-26.855,-23.438
1789996891.375257,-39.551,-33.203,-31.250,-35.645
1789996891.379128,-35.645,-17.090,-45.410,-33.203
1789996891.383496,-36.133,-31.250,-39.062,-27.344
1789996891.387367,-39.062,-30.273,-27.832,-33.691
1789996891.391239,-37.109,-17.578,-16.602,-34.180
1789996891.395110,-38.574,-22.461,-12.207,-33.691
1789996891.398981,-47.363,-25.879,-21.484,-40.039
1789996891.402852,-45.898,-24.902,-26.367,-46.875
1789996891.406723,-60.059,-25.391,-29.297,-55.176
1789996891.410595,-62.012,-29.297,-20.020,-53.223
1789996891.414466,-72.266,-18.066,-14.648,-55.176
1789996891.418337,-71.777,-2.441,-15.625,-61.035
1789996891.422209,-58.594,-7.812,-16.602,-71.289
1789996891.426080,-72.754,-5.859,0.488,-88.379
1789996891.430423,0.000,9.277,13.184,-104.980
1789996891.434294,0.000,19.043,-10.742,-114.746
1789996891.438166,0.000,3.906,-10.254,-109.863
1789996891.442037,0.000,4.883,-2.441,-121.582
1789996891.445909,0.000,26.855,-1.953,-125.000
1789996891.449780,0.000,23.926,0.000,-117.676
1789996891.453652,0.000,10.254,-3.906,-110.352
1789996891.457523,0.000,0.977,-14.160,-112.305
1789996891.461395,0.000,-2.441,-23.926,-113.281
1789996891.465266,0.000,-11.719,-27.344,-107.422
1789996891.469138,0.000,-25.879,-16.602,-97.168
1789996891.473009,0.000,-34.180,-19.043,-82.031
1789996891.477349,-108.398,-38.086,-46.875,-78.613
1789996891.481221,-103.027,-37.598,-47.852,-84.961
1789996891.485093,-56.641,-33.691,-38.086,-49.805
1789996891.488965,-41.504,-49.316,-28.320,-36.133
1789996891.492836,-81.055,-62.500,-20.508,-63.965
1789996891.496708,-79.102,-53.223,-31.250,-60.547
1789996891.500580,-53.711,-50.781,-26.855,-41.992
1789996891.504452,-52.734,-62.500,-18.555,-31.738
1789996891.508323,-53.223,-61.035,-28.320,-36.621
1789996891.512195,-49.316,-53.711,-26.367,-39.062
1789996891.516067,-27.344,-58.105,-32.227,-31.738
1789996891.519939,-5.371,-61.035,-28.809,-18.066
1789996891.524178,-11.719,-49.805,-24.414,-17.090
1789996891.528050,-45.898,-48.340,-35.645,-22.461
1789996891.531922,-60.547,-54.688,-32.227,-19.531
1789996891.535794,-30.273,-58.105,-28.320,-9.277
1789996891.539666,-28.320,-58.594,-32.715,-8.789
1789996891.543538,-47.363,-54.688,-28.320,-24.902
1789996891.547410,-42.969,-58.594,-23.438,-14.648
1789996891.551282,-35.156,-58.105,-27.832,-15.137
1789996891.555154,-13.184,-47.363,-27.832,-33.203
1789996891.559026,-19.531,-50.781,-11.230,-28.320
1789996891.562898,-48.828,-55.176,-18.066,-34.180
1789996891.566770,-25.879,-48.828,-40.039,-26.855
1789996891.570976,-11.719,-41.992,-27.344,-20.996
1789996891.574848,-27.832,-34.668,-19.531,-30.273
1789996891.578720,-27.344,-20.508,-13.184,-36.133
1789996891.582592,-42.969,-25.391,-29.785,-46.387
1789996891.586464,-44.922,-13.672,-34.668,-55.176
1789996891.590337,-53.711,5.371,-14.160,-66.895
1789996891.594209,-81.543,2.930,-0.488,-83.008
1789996891.598081,-102.539,17.090,-14.648,-99.609
1789996891.601953,-125.977,27.832,-3.418,-133.789
1789996891.605825,-136.719,30.762,5.371,-147.949
1789996891.609697,-157.715,39.551,-15.625,-162.109
1789996891.613569,-164.551,41.016,1.953,-175.293
1789996891.617739,-166.504,40.039,10.254,-167.480
1789996891.621612,-173.828,25.879,14.648,-156.738
1789996891.625484,-170.898,32.715,18.555,-145.996
1789996891.629356,-170.410,44.922,13.672,-158.203
1789996891.633229,-160.645,31.738,1.465,-151.855
1789996891.637101,-148.438,25.879,-9.766,-131.348
1789996891.640973,-141.602,21.973,3.906,-128.906
1789996891.644845,-128.418,14.648,-16.602,-125.000
1789996891.648718,-102.539,2.441,-22.949,-112.305
1789996891.652590,-70.312,0.977,-5.371,-86.426
1789996891.656462,-64.941,-15.625,-17.578,-66.895
1789996891.660335,-78.125,-20.508,-25.391,-65.430
1789996891.664758,-62.988,-19.531,-27.832,-52.734
1789996891.668631,-42.969,-29.297,-32.715,-45.410
1789996891.672504,-32.227,-23.926,-41.992,-47.363
1789996891.676376,-35.156,-30.273,-44.434,-50.293
1789996891.680249,-45.410,-45.898,-41.504,-51.270
1789996891.684122,-32.715,-54.688,-28.320,-38.086
1789996891.687994,-9.766,-53.223,-26.367,-15.625
1789996891.691867,-26.855,-49.805,-50.781,-10.742
1789996891.695739,-34.180,-49.805,-55.664,-20.020
1789996891.699612,-15.137,-58.594,-54.199,-3.418
1789996891.703485,5.371,-62.012,-44.434,10.742
1789996891.707357,1.465,-62.012,-52.734,-4.883
1789996891.711747,0.000,-62.988,-63.477,-18.066
1789996891.715620,0.000,-63.965,-60.059,-9.766
1789996891.719493,0.000,-68.848,-62.500,-5.859
1789996891.723366,0.000,-64.453,-60.547,-2.441
1789996891.727239,0.000,-60.547,-41.016,-5.859
1789996891.731112,0.000,-66.895,-42.480,-8.301
1789996891.734985,0.000,-61.523,-63.965,9.766
1789996891.738858,0.000,-55.664,-57.129,7.812
1789996891.742730,0.000,-54.199,-50.293,11.719
1789996891.746603,0.000,-61.523,-40.527,16.113
1789996891.750476,0.000,-67.383,-47.852,0.000
1789996891.754349,0.000,-58.105,-52.734,6.836
1789996891.758675,22.461,-57.129,0.000,2.441
1789996891.762548,0.000,-63.965,0.000,0.977
1789996891.766421,7.324,-57.617,0.000,8.301
1789996891.770294,7.812,-52.734,0.000,4.395
1789996891.774167,-3.906,-71.289,0.000,3.418
1789996891.778040,-8.301,-65.918,0.000,2.441
1789996891.781914,1.953,-50.293,0.000,9.277
1789996891.785787,-0.977,-51.758,0.000,6.348
1789996891.789660,-1.465,-54.199,0.000,9.766
1789996891.793533,-14.648,-53.711,0.000,13.184
1789996891.797406,-28.809,-54.199,0.000,-8.301
1789996891.801279,-19.043,-53.711,0.000,-6.836
1789996891.805565,-14.160,-33.691,-34.668,0.488
1789996891.809438,-44.922,-40.039,-9.277,-20.508
1789996891.813312,-69.824,-54.688,-26.855,-47.852
1789996891.817185,-50.781,-32.715,-43.457,-29.297
1789996891.821058,-25.879,-7.324,-7.324,-0.488
1789996891.824932,-52.734,-5.371,-9.766,-41.016
1789996891.828805,-85.938,-2.441,-20.996,-78.613
1789996891.832678,-94.727,10.254,-16.113,-85.938
1789996891.836552,-90.332,16.602,-8.301,-95.215
1789996891.840425,-77.637,24.414,-9.277,-104.004
1789996891.844298,-104.492,4.883,-23.438,-135.254
1789996891.848171,-96.680,-0.488,0.488,-115.723
1789996891.852407,-68.848,24.902,31.738,-85.449
1789996891.856281,-115.723,21.484,11.230,-128.418
1789996891.860154,-152.832,-11.719,-3.418,-145.996
1789996891.864028,-111.328,-30.273,-6.348,-108.398
1789996891.867901,-87.891,-3.906,-12.207,-77.637
1789996891.871774,-104.980,-16.602,-15.625,-84.473
1789996891.875648,-104.492,-37.109,-16.113,-88.867
1789996891.879522,-93.262,-38.574,-20.996,-80.566
1789996891.883395,-85.449,-50.293,-29.297,-71.289
1789996891.887269,-51.758,-58.105,-27.832,-55.664
1789996891.891142,-28.320,-49.316,-2.930,-21.484
1789996891.895016,-55.176,-35.156,-28.809,-28.320
1789996891.899242,-89.355,-49.316,-48.340,-74.707
1789996891.903116,-62.500,-49.805,-39.551,-45.898
1789996891.906990,-28.320,-44.922,-53.711,-12.207
1789996891.910863,-29.785,-57.617,-45.410,-26.367
1789996891.914737,-17.578,-58.105,-48.340,-21.484
1789996891.918611,-6.348,-54.199,-49.316,-7.812
1789996891.922485,6.348,-57.129,-46.387,-0.977
1789996891.926358,-3.418,-59.570,-49.805,-7.324
1789996891.930232,-18.066,-58.105,-61.523,-15.625
1789996891.934106,-7.812,-56.641,-53.223,-11.719
1789996891.937979,20.996,-46.387,-45.898,2.930
1789996891.941853,23.926,-37.598,-33.203,14.648
1789996891.946030,9.277,-39.551,-27.344,25.391
1789996891.949904,0.977,-44.922,-36.621,23.926
1789996891.953778,1.465,-48.828,-41.992,25.879
1789996891.957652,-5.859,-55.176,-46.387,13.672
1789996891.961526,-10.254,-61.035,-43.945,2.930
1789996891.965400,0.977,-52.246,-36.133,12.695
1789996891.969273,9.766,-36.133,-33.203,28.809
1789996891.973147,14.160,-42.969,-41.504,14.648
1789996891.977021,2.441,-49.316,-42.480,-1.465
1789996891.980895,-6.836,-44.922,-32.227,5.859
1789996891.984769,0.488,-42.969,-46.387,-0.977
1789996891.988643,7.324,-21.484,-26.367,3.906
1789996891.992797,-12.695,-26.367,-24.414,-15.625
1789996891.996671,-41.992,-38.574,-48.340,-35.645
1789996892.000545,-27.832,-21.484,-20.020,-19.531
1789996892.004419,-16.113,-28.809,-17.578,-5.859
1789996892.008293,-47.363,-39.062,-43.945,-37.109
1789996892.012167,-48.828,-3.418,-35.645,-36.621
1789996892.016041,-29.785,13.184,-6.348,-21.484
1789996892.019915,-41.016,-3.906,-16.113,-38.574
1789996892.023789,-66.895,8.301,-17.578,-62.988
1789996892.027663,-113.770,18.066,-21.484,-100.098
1789996892.031537,-140.137,16.113,-13.184,-110.352
1789996892.035411,-137.207,10.742,-8.301,-120.605
1789996892.039806,-121.094,14.160,-26.855,0.000
1789996892.043680,-146.973,1.953,-18.555,0.000
1789996892.047554,-142.090,8.301,-8.301,0.000
1789996892.051428,-114.746,23.926,-19.043,0.000
1789996892.055303,-118.164,12.695,-23.438,0.000
1789996892.059177,-113.770,-19.043,-22.949,0.000
1789996892.063051,-105.957,-29.297,-34.668,0.000
1789996892.066926,-99.121,-8.789,-35.156,0.000
1789996892.070800,-59.570,13.672,-38.086,0.000
1789996892.074674,-49.316,2.930,-30.273,0.000
1789996892.078548,-58.594,-19.531,-53.711,0.000
1789996892.082422,-53.223,-28.320,-81.055,0.000
1789996892.086771,-24.414,-27.832,-66.895,-51.270
1789996892.090645,7.812,-26.367,-72.754,-28.320
1789996892.094520,-16.113,-33.691,-64.941,-40.527
1789996892.098394,-13.672,-42.480,-62.012,-34.668
1789996892.102268,17.578,-50.293,-70.801,-25.879
1789996892.106143,30.273,-48.340,-64.941,-14.648
1789996892.110018,19.043,-51.758,-52.734,-0.977
1789996892.113892,4.883,-61.035,-43.457,-4.883
1789996892.117767,20.020,-63.477,-58.594,2.441
1789996892.121641,20.508,-63.477,-50.293,14.648
1789996892.125515,5.859,-49.316,-58.105,-2.930
1789996892.129390,-1.953,-39.551,-84.961,-8.789
1789996892.133687,2.441,-52.246,-87.402,-5.371
1789996892.137562,30.273,-42.480,-66.895,16.113
1789996892.141437,26.855,-27.832,-42.969,38.086
1789996892.145311,-3.906,-46.875,-45.410,20.996
1789996892.149186,-10.254,-63.477,-56.641,7.324
1789996892.153061,-14.648,-63.477,-70.801,-3.906
1789996892.156935,-12.695,-64.453,-68.848,2.441
1789996892.160810,-5.371,-62.988,-71.777,9.277
1789996892.164685,-0.488,-57.129,-62.012,10.742
1789996892.168560,15.137,-61.523,-47.363,16.602
1789996892.172434,27.344,-53.223,-60.547,16.113
1789996892.176309,20.996,-38.574,-55.664,9.277
1789996892.180595,12.695,-50.293,0.000,-6.348
1789996892.184470,23.926,-51.758,0.000,1.953
1789996892.188345,26.855,-49.316,0.000,6.836
1789996892.192220,21.484,-53.711,0.000,2.441
1789996892.196095,17.578,-50.781,0.000,9.277
1789996892.199970,17.090,-50.781,0.000,0.000
1789996892.203845,17.578,-45.898,0.000,6.348
1789996892.207720,23.438,-36.133,0.000,26.855
1789996892.211595,10.254,-38.574,0.000,9.277
1789996892.215469,7.812,-41.992,0.000,2.930
1789996892.219344,33.691,-37.109,0.000,17.090
1789996892.223219,16.113,-38.574,0.000,11.719
1789996892.227460,0.977,-43.457,-51.758,0.488
1789996892.231335,4.883,-52.246,-52.246,-6.836
1789996892.235211,11.230,-49.805,-40.527,2.441
1789996892.239086,20.020,-50.293,-25.879,7.324
1789996892.242961,10.254,-43.457,-34.180,-6.836
1789996892.246836,-7.324,-42.480,-60.547,-23.926
1789996892.250711,-14.648,-43.457,-31.738,-17.090
1789996892.254586,-0.488,-42.969,-27.344,9.277
1789996892.258461,-20.508,-57.617,-67.871,-15.137
1789996892.262336,-37.598,-54.199,-58.105,-41.016
1789996892.266211,-17.578,-42.480,-48.828,-30.273
1789996892.270087,-3.418,-39.062,-43.945,-13.672
1789996892.274273,-2.441,-39.062,-36.133,-7.812
1789996892.278148,-16.113,-37.109,-37.598,-28.809
1789996892.282023,-29.785,-39.062,-37.598,-26.367
1789996892.285899,-14.648,-37.109,-37.109,-24.902
1789996892.289774,5.371,-35.156,-45.898,-21.484
1789996892.293649,-13.672,-37.598,-25.879,-34.668
1789996892.297524,-35.645,-35.645,-27.344,-44.922
1789996892.301400,-21.973,-32.715,-62.500,-22.461
1789996892.305275,-11.230,-33.203,-60.059,-20.020
1789996892.309150,-20.996,-44.434,-52.246,-37.598
1789996892.313025,-26.367,-51.758,-35.645,-37.109
1789996892.316901,-27.344,-45.898,-26.855,-24.414
1789996892.321069,-38.086,-56.641,-38.574,-29.297
1789996892.324944,-20.996,-47.363,-45.410,-29.785
1789996892.328820,-19.531,-47.852,-43.457,-32.227
1789996892.332695,-42.480,-57.129,-22.461,-46.875
1789996892.336570,-28.320,-45.898,-20.508,-38.574
1789996892.340446,-24.414,-46.875,-33.203,-28.809
1789996892.344321,-45.410,-49.805,-37.598,-45.898
1789996892.348197,-29.785,-41.992,-46.875,-31.738
1789996892.352072,-0.488,-41.992,-40.527,-21.484
1789996892.355947,-12.207,-49.805,-31.738,-23.926
1789996892.359823,-52.734,-54.199,-24.414,-35.645
1789996892.363698,-54.199,-49.805,-18.555,-39.551
1789996892.367840,-37.598,-50.781,-18.555,-34.180
1789996892.371716,-28.809,-45.410,-32.715,-23.438
1789996892.375591,-39.062,-35.645,-13.184,-29.785
1789996892.379467,-55.176,-39.551,-6.348,-40.527
1789996892.383342,-57.617,-44.922,-31.738,-37.109
1789996892.387218,-62.500,-49.316,-33.691,-33.203
1789996892.391093,-58.594,-52.246,-32.715,-32.715
1789996892.394969,-68.359,-45.898,-32.715,-43.945
1789996892.398844,-70.801,-41.504,-21.484,-40.527
1789996892.402720,-62.500,-41.016,-18.555,-41.992
1789996892.406595,-59.570,-38.086,-27.344,-37.109
1789996892.410471,-59.082,-37.598,-33.691,-30.273
1789996892.414829,-81.055,-34.180,-24.414,-54.199
1789996892.418705,-77.148,-38.086,-19.531,-51.758
1789996892.422580,-61.035,-38.574,-45.410,-48.340
1789996892.426456,-68.848,-20.996,-31.250,-56.641
1789996892.430332,-65.430,-15.137,-24.414,-41.504
1789996892.434207,-49.316,-9.766,-14.648,-40.527
1789996892.438083,-68.359,0.000,-20.020,-67.383
1789996892.441959,-88.379,-0.488,-26.855,-89.355
1789996892.445835,-100.586,17.090,-1.465,-107.422
1789996892.449711,-136.719,28.320,2.930,-141.602
1789996892.453586,-135.254,25.391,-13.672,-155.762
1789996892.457462,-151.367,39.551,-0.977,-177.246
1789996892.461817,0.000,46.875,1.465,-198.730
1789996892.465693,0.000,41.504,-15.137,-183.594
1789996892.469568,0.000,33.203,-5.371,-183.105
1789996892.473444,0.000,35.156,-19.043,-187.500
1789996892.477320,0.000,39.062,-16.113,-183.105
1789996892.481196,0.000,36.133,16.602,-166.504
1789996892.485072,0.000,40.039,12.207,-158.691
1789996892.488948,0.000,38.574,-2.930,-166.504
1789996892.492824,0.000,27.344,-3.418,-163.574
1789996892.496701,0.000,17.578,-7.812,-159.180
1789996892.500576,0.000,18.066,15.137,-143.066
1789996892.504452,0.000,12.695,11.230,-124.023
1789996892.508770,-132.812,-8.301,-29.297,-122.070
1789996892.512647,-145.020,-20.020,-24.414,-123.047
1789996892.516523,-113.281,-17.578,-17.578,-110.352
1789996892.520399,-85.938,-24.902,-29.297,-88.867
1789996892.524275,-90.332,-41.992,-36.621,-92.773
1789996892.528152,-89.355,-50.781,-43.457,-101.562
1789996892.532028,-82.031,-46.387,-45.410,-72.754
1789996892.535904,-53.223,-39.551,-49.316,-55.664
1789996892.539780,-28.809,-44.434,-48.340,-37.109
1789996892.543656,-47.852,-62.500,-28.320,-33.203
1789996892.547532,-43.945,-69.824,-32.227,-39.062
1789996892.551409,-14.648,-64.453,-50.781,-14.160
1789996892.555697,5.371,-61.523,-46.875,-6.348
1789996892.559573,-5.859,-54.688,-65.918,-31.250
1789996892.563449,-32.715,-62.012,-67.871,-21.484
1789996892.567326,-22.461,-64.941,-59.570,1.953
1789996892.571202,-7.812,-63.477,-60.059,-3.906
1789996892.575079,-7.324,-67.871,-51.758,1.465
1789996892.578955,-19.043,-77.148,-57.129,-3.418
1789996892.582831,-15.625,-73.242,-56.152,-4.883
1789996892.586708,14.160,-63.965,-38.574,26.855
1789996892.590584,20.508,-68.359,-46.387,28.320
1789996892.594461,-9.766,-67.383,-59.082,6.348
1789996892.598337,-11.230,-69.336,-52.246,6.348
1789996892.602582,18.555,-67.871,-58.594,25.391
1789996892.606458,19.531,-63.477,-61.523,25.879
1789996892.610335,12.695,-61.523,-62.012,2.930
1789996892.614211,-0.977,-63.477,-60.059,1.953
1789996892.618088,-0.488,-64.941,-59.082,27.344
1789996892.621964,13.184,-68.848,-54.688,29.297
1789996892.625841,-3.906,-69.824,-57.617,5.371
1789996892.629717,-10.254,-52.734,-55.664,17.578
1789996892.633594,4.883,-44.922,-41.992,31.738
1789996892.637470,16.113,-52.246,-39.062,16.602
1789996892.641347,18.066,-52.246,-54.199,14.648
1789996892.645224,9.766,-44.922,-41.992,13.672
1789996892.649424,5.859,-46.875,-37.598,1.953
1789996892.653301,13.672,-47.852,-65.918,-0.488
1789996892.657178,7.812,-40.527,-63.477,0.488
1789996892.661054,-11.719,-43.945,-50.781,-7.324
1789996892.664931,-20.020,-46.875,-54.688,-18.555
1789996892.668808,-11.230,-42.969,-60.547,-23.438
1789996892.672685,-12.207,-49.805,-45.898,-11.719
1789996892.676561,-21.484,-43.945,-33.691,-5.859
1789996892.680438,-22.461,-27.832,-41.016,-27.832
1789996892.684315,-28.809,-13.184,-33.691,-39.062
1789996892.688192,-31.738,-11.719,-25.879,-40.527
1789996892.692068,-42.969,-0.977,-22.461,-44.922
1789996892.696246,-78.613,12.695,-1.465,-69.824
1789996892.700123,-102.051,14.648,-2.930,-98.633
1789996892.704000,-95.703,19.531,-32.715,-99.121
1789996892.707876,-95.703,24.902,-25.391,-104.004
1789996892.711753,-132.324,16.602,-21.973,-126.465
1789996892.715630,-137.207,26.855,-22.461,-129.395
1789996892.719507,-121.094,27.832,-11.230,-115.723
1789996892.723384,-126.465,19.043,-6.836,-115.234
1789996892.727261,-120.117,38.574,4.883,-113.770
1789996892.731138,-109.375,40.039,21.973,-101.074
1789996892.735014,-105.469,20.020,0.000,-93.262
1789996892.738891,-97.656,2.930,-15.137,-79.102
1789996892.743031,-93.750,-1.953,-5.859,-79.102
1789996892.746908,-90.332,-16.113,-25.879,-77.637
1789996892.750785,-79.102,-36.133,-40.039,-75.195
1789996892.754662,-59.082,-47.363,-33.203,-58.594
1789996892.758539,-49.316,-51.758,-32.715,-43.945
1789996892.762416,-49.805,-45.410,-41.992,-46.387
1789996892.766293,-46.387,-44.922,-38.086,-31.250
1789996892.770170,-28.320,-48.828,-41.016,-26.855
1789996892.774047,-17.578,-50.293,-41.504,-26.855
1789996892.777924,-32.227,-57.617,-39.062,-20.508
1789996892.781801,-42.480,-65.430,-42.969,-17.090
1789996892.785678,-25.879,-66.406,-50.293,-8.301
1789996892.790023,-12.695,-66.895,-23.438,0.000
1789996892.793900,-14.160,-65.918,-31.250,0.000
1789996892.797777,-13.184,-68.359,-69.336,1.953
1789996892.801654,-1.465,-73.730,-55.664,-1.953
1789996892.805532,6.348,-71.289,-58.105,-5.371
1789996892.809409,-5.859,-70.801,-51.758,6.836
1789996892.813286,-16.113,-73.730,-41.992,11.230
1789996892.817163,-10.742,-74.707,-57.617,-4.395
1789996892.821040,6.348,-66.895,-62.012,4.883
1789996892.824918,13.184,-67.383,-52.246,5.859
1789996892.828795,-3.906,-71.777,-51.270,-3.906
1789996892.832672,-16.113,-64.453,-41.992,-0.488
1789996892.836960,4.883,-58.594,-45.410,-4.395
1789996892.840837,3.418,-69.824,-35.645,-7.812
1789996892.844715,-23.926,-76.660,-34.668,-16.602
1789996892.848592,-20.020,-65.430,-58.105,-18.066
1789996892.852470,-10.742,-61.523,-50.781,-18.555
1789996892.856347,-8.301,-59.570,-48.340,-11.719
1789996892.860224,-21.973,-50.293,-35.645,-1.465
1789996892.864102,-31.250,-43.457,-35.156,-9.277
1789996892.867979,-25.391,-48.340,-44.434,-18.555
1789996892.871857,-24.902,-49.805,-35.645,-19.531
1789996892.875734,-30.762,-43.945,-26.855,-15.625
1789996892.879611,-42.969,-29.297,-26.367,-22.461
1789996892.883883,-63.477,-9.766,-35.156,-49.316
1789996892.887761,-64.941,-12.695,-23.926,-60.059
1789996892.891638,-68.848,-6.836,-2.930,-68.359
1789996892.895516,-101.074,13.184,-14.160,-91.797
1789996892.899393,-130.371,22.949,-21.484,-107.910
1789996892.903271,-110.840,25.879,-12.695,-108.398
1789996892.907149,-113.770,10.742,-4.395,-117.676
1789996892.911026,-140.137,20.508,6.348,-124.512
1789996892.914904,-161.621,24.902,8.789,-124.023
1789996892.918781,-172.852,9.766,0.000,-141.113
1789996892.922659,-151.855,17.090,1.953,-152.344
1789996892.926536,-152.344,23.438,1.953,-150.879
1789996892.930794,-160.645,22.949,-7.324,-153.809
1789996892.934671,-166.504,15.137,12.207,-164.062
1789996892.938549,-156.738,10.742,17.578,-152.832
1789996892.942427,-141.113,20.996,-1.953,-128.418
1789996892.946305,-156.250,22.461,16.113,-139.648
1789996892.950182,-161.621,12.207,16.113,-147.949
1789996892.954060,-135.742,4.395,-3.906,-126.465
1789996892.957938,-135.742,-6.348,-1.465,-126.465
1789996892.961816,-175.293,-3.418,10.742,-156.738
1789996892.965693,-189.453,-1.465,4.395,-166.992
1789996892.969571,-147.461,-15.625,4.395,-134.766
1789996892.973449,-119.141,-16.602,5.859,-120.605
1789996892.977661,-136.719,-1.953,-3.906,-130.371
1789996892.981539,-167.969,-7.324,2.441,-146.484
1789996892.985417,-178.711,-23.438,2.441,-152.832
1789996892.989295,-150.391,-23.926,-7.812,-125.488
1789996892.993173,-129.395,-20.996,-6.348,-115.723
1789996892.997051,-125.977,-20.508,-1.465,-125.488
1789996893.000929,-136.230,-10.254,-18.555,-129.395
1789996893.004807,-124.512,-3.906,-16.113,-116.699
1789996893.008685,-113.770,-20.508,-6.348,-107.910
1789996893.012563,-130.859,-24.902,-17.090,-119.141
1789996893.016440,-117.188,-18.066,-14.160,-111.328
1789996893.020318,-105.957,-10.254,-19.531,-108.887
1789996893.024498,-108.887,-11.719,-22.949,-116.699
1789996893.028376,-129.883,-20.020,-10.742,-119.141
1789996893.032254,-139.648,-23.926,0.977,-112.793
1789996893.036132,-109.863,-31.738,2.441,-99.609
1789996893.040010,-102.539,-18.066,-20.020,-100.586
1789996893.043888,-114.258,-10.742,-20.508,-104.492
1789996893.047766,-127.930,-23.438,-3.906,-111.328
1789996893.051644,-135.742,-26.855,-3.418,-115.723
1789996893.055522,-119.629,-31.738,-9.277,-100.586
1789996893.059400,-104.492,-24.414,-18.066,-84.961
1789996893.063278,-113.770,-14.160,-21.973,-93.750
1789996893.067156,-117.676,-21.484,-15.625,-95.703
1789996893.071312,-104.004,-23.438,-10.254,-98.145
1789996893.075191,-108.398,-29.297,-3.418,-99.609
1789996893.079069,-94.238,-29.297,-19.043,-82.520
1789996893.082947,-88.867,-26.855,-26.367,-86.914
1789996893.086825,-85.938,-21.973,-18.066,-84.473
1789996893.090703,-74.219,-20.996,-14.648,-74.707
1789996893.094581,-83.008,-20.020,-8.789,-69.336
1789996893.098459,-83.008,-14.648,-10.254,-65.430
1789996893.102338,-73.730,-14.160,-11.230,-69.824
1789996893.106216,-68.848,-11.719,-4.395,-69.824
1789996893.110094,-88.867,-19.531,-13.672,-75.684
1789996893.113972,-103.027,-25.879,-15.625,-89.355
1789996893.118091,-87.402,-12.207,-26.367,-82.520
1789996893.121970,-72.266,-16.602,-12.207,-74.219
1789996893.125848,-80.566,-29.785,-2.441,-83.984
1789996893.129726,-96.680,-33.691,-38.574,-82.520
1789996893.133605,-87.402,-30.273,-40.039,-78.613
1789996893.137483,-66.406,-19.531,-31.250,-64.453
1789996893.141361,-90.820,-28.809,-28.320,-70.312
1789996893.145239,-108.398,-34.180,-21.973,-83.984
1789996893.149117,-83.496,-27.832,-15.625,-54.199
1789996893.152996,-75.684,-23.926,-23.438,-53.223
1789996893.156874,-80.078,-24.902,-29.297,-70.801
1789996893.160752,-75.195,-15.137,-40.039,-69.336
1789996893.165073,-89.844,-20.996,-38.574,-81.543
1789996893.168951,-97.656,-32.227,-25.879,-87.891
1789996893.172830,-83.984,-34.180,-30.273,-73.242
1789996893.176708,-80.078,-35.645,-16.113,-75.684
1789996893.180587,-92.773,-26.367,-20.996,-92.773
1789996893.184465,-98.145,-20.996,-44.922,-88.867
1789996893.188344,-83.008,-28.809,-29.785,-69.336
1789996893.192222,-82.031,-42.480,-25.391,-77.637
1789996893.196100,-107.422,-38.574,-41.992,-106.445
1789996893.199979,-104.004,-23.438,-47.852,-97.168
1789996893.203857,-83.496,-24.414,-40.527,-85.449
1789996893.207736,-78.125,-28.320,-47.363,-91.309
1789996893.212054,0.000,-30.273,0.000,0.000
1789996893.215932,0.000,-41.504,0.000,0.000
1789996893.219811,0.000,-34.668,0.000,0.000
1789996893.223689,0.000,-21.973,0.000,0.000
1789996893.227568,0.000,-23.438,0.000,0.000
1789996893.231447,0.000,-31.250,0.000,0.000
1789996893.235325,0.000,-41.992,0.000,0.000
1789996893.239204,0.000,-21.484,0.000,0.000
1789996893.243083,0.000,-10.254,0.000,0.000
1789996893.246961,0.000,-16.602,0.000,0.000
1789996893.250840,0.000,-9.277,0.000,0.000
1789996893.254719,0.000,-15.137,0.000,0.000
1789996893.258987,-62.500,-16.602,-30.762,-69.824
1789996893.262866,-89.844,-9.277,-37.109,-88.379
1789996893.266745,-72.754,-13.672,-36.621,-69.336
1789996893.270623,-48.340,-14.160,-38.086,-63.477
1789996893.274502,-52.734,-6.348,-42.969,-78.613
1789996893.278381,-58.105,-21.484,-34.668,-68.848
1789996893.282260,-53.711,-32.715,-28.320,-58.105
1789996893.286139,-63.477,-21.973,-48.828,-70.801
1789996893.290018,-73.730,-20.508,-35.645,-71.289
1789996893.293896,-62.500,-18.066,-18.066,-57.617
1789996893.297775,-53.223,-23.438,-42.480,-47.363
1789996893.301654,-62.012,-25.391,-34.180,-48.828
1789996893.305892,-55.176,-10.742,-32.227,-50.293
1789996893.309772,-55.664,-12.207,-43.457,-52.734
1789996893.313651,-61.523,-15.625,-46.875,-55.176
1789996893.317529,-53.223,-23.438,-36.621,-38.574
1789996893.321409,-32.227,-25.391,-20.508,-19.043
1789996893.325287,-45.410,-16.602,-32.715,-40.527
1789996893.329166,-80.078,-17.090,-51.270,-73.730
1789996893.333045,-69.824,-17.090,-50.293,-62.500
1789996893.336924,-37.109,-13.672,-46.387,-29.785
1789996893.340803,-28.320,-31.250,-51.270,-27.832
1789996893.344682,-35.156,-39.551,-54.688,-40.039
1789996893.348561,-41.016,-24.414,-56.152,-51.758
1789996893.352758,-38.086,-22.461,-61.035,-53.223
1789996893.356638,-34.668,-25.879,-65.430,-55.176
1789996893.360517,-33.203,-22.949,-44.434,-49.316
1789996893.364396,-45.898,-23.438,-55.664,-35.156
1789996893.368275,-37.109,-21.973,-69.336,-30.762
1789996893.372154,-26.855,-17.578,-59.570,-35.156
1789996893.376033,-41.504,-20.996,-62.988,-43.945
1789996893.379912,-51.270,-17.578,-67.383,-44.922
1789996893.383791,-42.969,-19.531,-62.500,-32.227
1789996893.387671,-22.949,-27.832,-54.688,-23.438
1789996893.391550,-17.578,-31.738,-66.406,-25.391
1789996893.395429,-30.762,-25.879,-69.336,-35.645
1789996893.399582,-20.996,-22.461,-58.105,-25.391
1789996893.403461,1.953,-18.066,-57.129,-11.230
1789996893.407340,14.160,-24.902,-64.941,-10.742
1789996893.411220,9.277,-24.902,-74.707,-11.230
1789996893.415099,-2.930,-22.461,-80.566,-19.043
1789996893.418978,15.625,-31.250,-80.566,-13.184
1789996893.422857,46.387,-39.551,-76.660,34.668
1789996893.426737,37.598,-39.062,-71.777,47.852
1789996893.430616,14.160,-35.156,-75.195,-0.977
1789996893.434495,4.883,-38.086,-77.637,-20.996
1789996893.438374,24.902,-45.898,-83.984,2.441
1789996893.442254,55.664,-55.664,-77.637,49.316
1789996893.446399,42.969,-53.223,-65.430,50.293
1789996893.450278,11.719,-52.246,-67.383,17.578
1789996893.454158,27.344,-57.129,-76.660,31.250
1789996893.458037,57.617,-56.152,-77.148,58.594
1789996893.461916,55.664,-66.406,-66.406,62.012
1789996893.465796,57.129,-79.102,-67.871,54.688
1789996893.469675,60.547,-78.125,-56.641,60.059
1789996893.473554,62.012,-77.148,-70.312,59.082
1789996893.477434,67.871,-83.984,-92.773,50.781
1789996893.481313,79.590,-87.891,-90.332,50.781
1789996893.485193,86.426,-92.773,-87.402,58.594
1789996893.489072,85.449,-98.145,-71.777,80.078
1789996893.493182,73.242,-101.562,-70.801,85.938
1789996893.497062,70.801,-100.098,-80.566,77.637
1789996893.500942,80.566,-102.051,-77.637,80.078
1789996893.504821,99.121,-109.375,-72.266,97.656
1789996893.508700,102.051,-98.145,-75.195,95.703
1789996893.512580,86.914,-93.262,-84.473,88.867
1789996893.516459,83.008,-100.586,-82.520,87.891
1789996893.520339,83.984,-103.027,-75.195,82.031
1789996893.524218,93.262,-104.492,-52.734,95.703
1789996893.528098,85.449,-102.051,-48.828,101.562
1789996893.531977,89.844,-95.215,-64.941,108.887
1789996893.535856,84.473,-92.773,-62.012,111.328
1789996893.540168,74.707,-91.797,-63.477,88.379
1789996893.544047,62.988,-83.496,-61.523,62.988
1789996893.547927,39.551,-76.660,-62.012,51.270
1789996893.551807,44.922,-67.871,-61.035,53.711
1789996893.555686,49.805,-73.242,-61.035,41.504
1789996893.559566,29.785,-69.824,-46.387,20.020
1789996893.563446,-3.906,-35.156,-43.945,9.277
1789996893.567325,-26.855,-23.438,-45.898,-7.812
1789996893.571205,-51.758,-31.250,-42.480,-48.828
1789996893.575084,-65.430,7.812,-26.367,-62.988
1789996893.578964,-68.359,13.184,-2.441,-45.898
1789996893.582844,-66.895,16.113,3.906,-57.617
1789996893.587096,-94.727,44.434,-1.953,-103.027
1789996893.590976,-111.328,9.277,10.742,-124.023
1789996893.594856,-123.535,-3.906,9.766,-114.258
1789996893.598736,-140.137,15.625,4.883,-104.004
1789996893.602615,-141.602,40.039,15.137,-109.375
1789996893.606495,-137.207,46.875,11.719,-112.305
1789996893.610375,-141.602,35.645,5.859,-118.164
1789996893.614255,-147.949,58.105,0.000,-116.211
1789996893.618134,-138.672,72.266,1.953,-107.422
1789996893.622014,-115.723,74.707,19.531,-102.051
1789996893.625894,-108.398,86.914,9.277,-101.562
1789996893.629774,-130.371,94.727,-18.066,-120.605
1789996893.634007,-114.746,96.680,-22.949,-99.121
1789996893.637887,-66.895,78.613,-6.348,-58.105
1789996893.641767,-56.641,72.754,-29.785,-79.102
1789996893.645647,-86.426,64.941,-34.668,-107.910
1789996893.649527,-69.824,63.477,-25.391,-75.684
1789996893.653407,-43.945,63.965,-39.551,-48.828
1789996893.657287,-34.668,40.039,-40.527,-36.621
1789996893.661167,-34.668,20.020,-30.762,-30.273
1789996893.665046,-34.180,11.230,-18.066,-11.230
1789996893.668926,-21.484,1.953,-37.109,-2.441
1789996893.672807,0.000,-12.207,-58.594,-15.137
1789996893.676686,-1.953,-25.391,-54.688,-3.906
1789996893.680893,2.930,-26.855,-60.547,15.137
1789996893.684773,23.438,-40.039,-71.777,32.227
1789996893.688653,46.875,-52.734,-89.844,36.621
1789996893.692533,54.199,-56.152,-84.473,40.039
1789996893.696413,29.785,-72.266,-48.828,38.574
1789996893.700293,21.484,-91.797,-43.945,25.879
1789996893.704173,35.645,-96.191,-31.250,28.320
1789996893.708053,50.293,-89.844,-31.250,51.270
1789996893.711933,46.875,-93.262,-56.641,59.082
1789996893.715813,32.227,-102.539,-57.617,54.199
1789996893.719693,50.293,-104.004,-63.477,60.059
1789996893.723573,53.711,-104.492,-63.965,58.105
1789996893.727758,36.621,-107.910,-52.246,56.152
1789996893.731638,30.762,-109.863,-56.152,54.688
1789996893.735518,39.062,-110.352,-57.617,59.082
1789996893.739398,55.176,-113.770,-63.477,60.059
1789996893.743279,43.945,-115.723,-62.012,61.035
1789996893.747159,28.809,-112.793,-50.293,65.918
1789996893.751039,47.852,-101.074,-52.246,62.012
1789996893.754919,71.777,-97.656,-60.547,75.195
1789996893.758799,68.359,-98.633,-60.059,75.684
1789996893.762680,49.316,-97.168,-56.641,54.199
1789996893.766560,39.551,-101.074,-62.988,59.082
1789996893.770440,42.969,-103.027,-41.504,62.988
1789996893.774589,54.688,-98.145,-42.969,58.594
1789996893.778469,59.082,-93.750,-70.801,55.176
1789996893.782349,52.734,-95.703,-62.500,48.828
1789996893.786230,62.500,-94.238,-52.246,54.688
1789996893.790110,69.336,-87.891,-51.758,58.105
1789996893.793990,48.340,-87.891,-57.129,53.223
1789996893.797871,31.738,-91.797,-53.711,51.270
1789996893.801751,39.062,-86.914,-51.758,53.223
1789996893.805631,49.316,-88.379,-52.246,55.176
1789996893.809512,39.551,-94.238,-54.199,42.480
1789996893.813392,24.414,-97.168,-59.082,28.320
1789996893.817272,24.902,-96.191,-51.270,28.809
1789996893.821395,48.340,-83.984,-47.852,41.992
1789996893.825276,45.898,-81.543,-64.941,34.668
1789996893.829156,14.648,-83.008,-42.969,20.508
1789996893.833037,16.113,-74.707,-36.133,23.926
1789996893.836917,39.062,-71.289,-63.477,41.016
1789996893.840798,40.527,-78.125,-61.035,40.527
1789996893.844678,24.902,-79.590,-51.270,29.785
1789996893.848558,22.949,-75.195,-45.898,33.203
1789996893.852439,33.203,-71.777,-44.922,33.691
1789996893.856319,35.645,-69.824,-38.574,37.109
1789996893.860200,19.043,-72.754,-41.992,26.367
1789996893.864080,9.277,-70.801,-46.387,16.602
1789996893.868167,22.461,-66.895,-47.852,19.043
1789996893.872048,28.320,-70.801,-41.504,23.438
1789996893.875928,24.414,-70.312,-41.016,23.926
1789996893.879809,18.066,-69.824,-41.016,19.043
1789996893.883689,9.766,-71.289,-21.484,23.438
1789996893.887570,25.879,-65.918,-38.574,37.109
1789996893.891450,42.969,-62.012,-52.734,35.645
1789996893.895331,13.672,-69.336,-44.922,11.719
1789996893.899211,17.090,-62.012,-41.992,16.602
1789996893.903092,31.250,-57.129,-40.039,23.438
