timestamp,TP9,AF7,AF8,TP10
1790604238.071491,-0.488,0.000,0.000,-0.488
1790604238.075351,0.000,0.000,-0.488,0.000
1790604238.079210,0.000,-1.465,0.488,0.000
1790604238.083070,-1.953,1.953,-2.930,-1.953
1790604238.086930,6.348,-12.695,9.277,9.277
1790604238.090789,8.301,-30.762,7.324,16.602
1790604238.094649,-23.438,-33.691,-15.625,4.395
1790604238.098508,-28.809,-37.598,-14.648,11.230
1790604238.102368,1.953,-30.762,-8.301,26.855
1790604238.106227,16.602,-27.832,-0.488,21.973
1790604238.110087,3.906,-32.715,-2.930,5.371
1790604238.113946,-6.348,-30.762,-15.137,5.859
1790604238.116976,15.625,-30.273,-13.672,35.156
1790604238.120767,37.109,-31.250,5.859,39.062
1790604238.124557,18.555,-29.785,3.418,18.066
1790604238.128347,-29.297,-34.668,-15.137,-15.625
1790604238.132138,-30.762,-32.715,-6.836,9.277
1790604238.135928,34.180,-27.344,8.301,45.410
1790604238.139719,39.551,-29.785,10.742,30.762
1790604238.143509,-6.836,-43.457,2.441,14.160
1790604238.147299,-27.832,-45.898,-7.812,5.371
1790604238.151090,-4.883,-37.598,-9.277,41.016
1790604238.154880,19.043,-37.109,-2.930,35.156
1790604238.158671,-18.066,-39.062,-10.254,0.000
1790604238.159977,-37.598,-41.016,-19.043,-32.715
1790604238.163664,-19.043,-40.527,-10.742,10.254
1790604238.167351,24.902,-36.133,-8.789,26.855
1790604238.171037,3.418,-27.832,-10.742,-19.531
1790604238.174724,-33.203,-22.461,-2.441,15.625
1790604238.178411,-4.395,-29.297,-4.883,25.391
1790604238.182098,6.836,-33.691,-11.230,26.855
1790604238.185785,-11.719,-25.879,-2.930,13.672
1790604238.189472,-29.297,-26.367,-6.348,-6.836
1790604238.193159,-34.180,-31.250,-5.859,2.930
1790604238.196846,-9.277,-30.762,3.906,3.906
1790604238.200533,32.715,-25.879,4.883,37.598
1790604238.200651,-7.812,-29.297,4.883,31.250
1790604238.204239,-41.992,-34.180,-10.742,-6.836
1790604238.207826,14.648,-41.016,-2.441,20.508
1790604238.211414,31.250,-39.551,9.277,27.344
1790604238.215002,-9.277,-24.414,7.324,10.742
1790604238.218590,-6.836,-24.902,5.859,11.230
1790604238.222178,25.879,-37.109,6.348,30.762
1790604238.225765,20.508,-43.457,7.324,31.738
1790604238.229353,-17.090,-46.387,-13.184,-12.695
1790604238.232941,-47.852,-46.875,-16.602,-29.297
1790604238.236528,-15.625,-43.945,-20.508,-7.324
1790604238.240116,24.902,-42.969,-8.301,26.855
1790604238.241367,0.000,-44.434,1.953,-6.348
1790604238.244906,0.000,-43.457,2.930,-32.227
1790604238.248445,0.000,-41.992,0.977,8.789
1790604238.251984,0.000,-40.039,1.953,23.438
1790604238.255523,0.000,-44.434,-2.441,7.812
1790604238.259063,0.000,-44.434,-9.277,-2.441
1790604238.262602,0.000,-46.875,-13.184,19.531
1790604238.266141,0.000,-45.410,-14.648,36.621
1790604238.269680,0.000,-35.645,1.953,20.996
1790604238.273219,0.000,-36.133,1.953,5.371
1790604238.276758,0.000,-49.805,-7.324,-23.438
1790604238.280297,0.000,-44.434,-7.324,-30.762
1790604238.281719,10.742,-30.273,-3.418,33.203
1790604238.285223,-5.859,-29.297,0.977,21.484
1790604238.288726,-40.527,-34.180,-9.277,-8.301
1790604238.292230,-40.527,-40.039,-4.883,20.996
1790604238.295734,1.465,-41.992,2.441,13.672
1790604238.299238,-15.137,-33.203,-2.930,-10.254
1790604238.302742,-44.434,-22.949,-9.277,-23.926
1790604238.306245,-24.414,-23.438,-7.324,-13.672
1790604238.309749,-14.648,-26.855,-9.766,8.301
1790604238.313253,-9.766,-26.367,-17.578,-7.812
1790604238.316757,-19.043,-25.879,-13.672,2.441
1790604238.320261,-42.480,-21.973,-7.812,12.207
1790604238.323609,0.000,-15.137,-11.230,-0.977
1790604238.327111,0.000,-8.789,-20.020,6.348
1790604238.330613,0.000,-12.695,-14.160,5.859
1790604238.334114,0.000,-14.648,-10.742,-0.488
1790604238.337616,0.000,-13.184,-18.066,10.254
1790604238.341118,0.000,-20.996,-7.812,14.160
1790604238.344619,0.000,-18.066,0.000,-6.836
1790604238.348121,0.000,-16.602,-11.230,-20.996
1790604238.351623,0.000,-22.949,-14.160,0.000
1790604238.355124,0.000,-15.137,-9.766,12.695
1790604238.358626,0.000,-8.789,-1.465,1.953
1790604238.362128,0.000,-9.766,-6.836,5.859
1790604238.365273,-20.996,-7.324,-10.742,33.203
1790604238.368771,3.906,-9.277,-14.648,47.852
1790604238.372268,23.438,-6.348,-10.254,25.879
1790604238.375766,-17.578,-3.906,6.348,-12.207
1790604238.379263,-22.461,-6.348,-2.930,-19.531
1790604238.382760,-0.488,-1.953,-19.531,2.441
1790604238.386258,0.000,-4.883,-20.996,-5.859
1790604238.389755,-25.879,-12.695,-12.695,-5.859
1790604238.393253,-35.156,-12.695,-10.742,20.020
1790604238.396750,-15.625,-10.254,-15.137,8.789
1790604238.400247,13.672,-15.625,-4.883,20.020
1790604238.403745,13.672,-13.672,2.930,37.109
1790604238.406863,-20.508,-17.578,-9.766,11.230
1790604238.410357,-13.184,-23.438,-18.555,-0.977
1790604238.413850,19.531,-21.973,-16.602,21.973
1790604238.417344,31.738,-19.043,-10.254,3.906
1790604238.420837,-19.043,-20.508,0.488,-2.441
1790604238.424331,-21.973,-19.531,2.441,10.742
1790604238.427824,19.531,-16.602,0.000,32.227
1790604238.431318,21.973,-16.113,-1.465,33.203
1790604238.434811,-13.184,-22.949,-16.602,-0.977
1790604238.438305,-18.066,-21.484,-4.883,-13.672
1790604238.441798,4.395,-15.137,5.859,32.227
1790604238.445292,20.996,-15.625,6.348,72.266
1790604238.450221,13.184,-10.742,-4.395,12.695
1790604238.453727,-20.996,-13.672,-2.930,-7.812
1790604238.457234,-21.484,-15.625,-10.254,10.254
1790604238.460741,6.836,-12.207,-14.648,28.809
1790604238.464248,4.395,-13.184,-2.930,41.016
1790604238.467755,-29.297,-18.555,-7.812,7.812
1790604238.471261,-41.504,-20.508,-4.883,-1.465
1790604238.474768,-11.719,-15.137,-11.719,-3.906
1790604238.478275,23.926,-18.555,-2.930,13.184
1790604238.481781,-11.230,-14.648,0.488,14.648
1790604238.485288,-45.898,-15.137,-12.207,3.906
1790604238.488795,0.000,-20.996,-14.160,24.902
1790604238.495198,32.227,-20.996,-17.578,23.438
1790604238.498728,-12.695,-31.738,-30.273,-10.254
1790604238.502259,-40.039,-34.180,-23.438,-17.578
1790604238.505790,-19.531,-29.785,-14.648,0.488
1790604238.509321,-6.836,-37.109,-12.695,24.414
1790604238.512852,-23.438,-34.668,-7.324,8.301
1790604238.516383,-27.344,-36.621,-5.371,-8.301
1790604238.519914,-15.625,-37.598,-8.789,17.578
1790604238.523445,-10.742,-28.809,-12.207,20.508
1790604238.526975,-7.324,-28.809,-12.207,-15.625
1790604238.530506,-19.531,-31.250,-13.672,-21.973
1790604238.534037,-34.668,-31.250,-13.184,-14.648
1790604238.539840,3.418,-33.691,-10.742,3.906
1790604238.543388,26.367,-31.250,-12.695,21.973
1790604238.546936,-15.625,-31.250,-21.973,-17.578
1790604238.550484,-44.434,-34.180,-16.602,5.859
1790604238.554033,-27.832,-31.250,-12.695,33.203
1790604238.557581,5.371,-24.902,-8.789,19.531
1790604238.561129,-20.508,-25.391,-15.625,-7.324
1790604238.564677,-47.852,-25.391,-23.438,-14.648
1790604238.568225,-26.855,-29.785,-10.254,7.324
1790604238.571773,8.301,-29.785,-0.488,49.805
1790604238.575321,-14.160,-26.367,-11.719,19.043
1790604238.578869,-42.480,-29.785,-21.484,-11.230
1790604238.584063,-31.738,-29.785,-2.441,4.883
1790604238.587623,-9.277,-29.297,0.000,10.254
1790604238.591182,-0.977,-30.762,-17.578,2.930
1790604238.594742,-36.133,-33.691,-23.926,-13.184
1790604238.598301,-51.270,-26.855,-14.648,-11.719
1790604238.601861,-7.812,-12.695,-14.160,1.953
1790604238.605420,18.555,-9.766,-10.254,27.344
1790604238.608980,-21.484,-26.367,-5.859,17.090
1790604238.612540,-35.156,-39.551,-15.625,18.066
1790604238.616099,-15.625,-41.992,-28.320,22.461
1790604238.619658,6.836,-40.039,-26.855,-10.742
1790604238.623218,-16.113,-38.086,-19.043,-5.371
1790604238.629103,-41.504,-33.203,-34.180,-13.184
1790604238.632678,-32.227,-26.367,-31.738,6.836
1790604238.636252,-16.602,-30.273,-6.836,32.227
1790604238.639826,-19.531,-27.832,-15.625,5.859
1790604238.643401,-40.039,-19.043,-26.855,-24.414
1790604238.646975,-26.855,-19.043,-23.926,-20.996
1790604238.650550,1.953,-20.996,-12.695,25.391
1790604238.654124,-20.508,-28.809,-9.277,13.184
1790604238.657699,-55.176,-28.320,-33.203,-21.484
1790604238.661273,-42.969,-25.391,-25.391,0.977
1790604238.664847,-22.461,-26.367,-13.672,10.742
1790604238.668422,-24.414,-21.484,-25.391,-22.461
1790604238.674141,-42.969,-23.926,0.000,-31.738
1790604238.677728,-45.410,-27.832,0.000,-17.090
1790604238.681315,10.254,-22.949,0.000,-2.930
1790604238.684902,38.574,-19.043,0.000,3.906
1790604238.688490,-15.625,-20.996,0.000,-2.441
1790604238.692077,-25.391,-18.555,0.000,-9.277
1790604238.695664,-6.348,-17.578,0.000,14.160
1790604238.699251,9.277,-22.461,0.000,50.293
1790604238.702838,-3.906,-22.461,0.000,31.738
1790604238.706426,-40.527,-20.996,0.000,-4.883
1790604238.710013,-24.414,-20.508,0.000,-14.648
1790604238.713600,6.836,-22.461,0.000,15.137
1790604238.719132,0.000,-23.926,-18.066,28.809
1790604238.722730,0.000,-24.414,-21.484,-12.695
1790604238.726328,0.000,-30.273,-20.020,1.465
1790604238.729926,0.000,-26.367,-18.066,32.715
1790604238.733524,0.000,-11.230,-15.625,15.137
1790604238.737122,0.000,-11.230,-21.973,-38.086
1790604238.740720,0.000,-15.625,-19.043,-11.719
1790604238.744318,0.000,-19.043,-12.695,30.762
1790604238.747916,0.000,-20.508,-20.020,16.602
1790604238.751514,0.000,-9.766,-19.043,27.832
1790604238.755112,0.000,-9.277,-13.672,9.766
1790604238.758710,0.000,-19.043,-15.137,13.184
1790604238.764059,-7.324,-20.020,-19.531,45.410
1790604238.767666,7.324,-17.578,-23.926,15.625
1790604238.771273,-30.762,-24.414,-32.715,-8.301
1790604238.774881,-32.715,-21.973,-29.297,8.301
1790604238.778488,-24.902,-16.602,-19.043,21.973
1790604238.782095,-16.602,-19.043,-15.625,11.230
1790604238.785702,-14.648,-17.090,-20.020,-6.348
1790604238.789309,-43.457,-20.996,-22.461,-3.418
1790604238.792916,-41.504,-24.414,-14.160,3.906
1790604238.796523,-12.207,-16.602,-20.996,18.066
1790604238.800130,-31.250,-11.230,-24.414,-3.418
1790604238.803738,-52.734,-7.324,-19.043,-7.812
1790604238.810701,-31.738,-8.789,-13.184,22.461
1790604238.814325,-1.465,-3.906,-14.648,21.484
1790604238.817948,-7.812,-4.395,-13.672,-3.906
1790604238.821572,-25.879,-14.648,-24.902,-44.922
1790604238.825195,-40.527,-19.043,-29.297,-19.531
1790604238.828819,-14.160,-23.438,-8.789,41.504
1790604238.832443,1.465,-21.973,-8.789,26.367
1790604238.836066,-21.973,-19.043,-23.926,-36.621
1790604238.839690,-47.363,-16.602,-13.184,-18.555
1790604238.843313,-21.484,-8.789,5.371,46.875
1790604238.846937,22.949,-1.953,-13.184,20.020
1790604238.850560,-7.324,-2.441,-23.438,-32.227
1790604238.857262,0.000,-5.371,-18.066,-7.324
1790604238.860900,0.000,-6.348,-17.090,36.621
1790604238.864538,0.000,-2.441,-13.672,10.742
1790604238.868176,0.000,-4.395,-6.348,-11.719
1790604238.871814,0.000,-2.441,-4.883,13.672
1790604238.875451,0.000,-3.418,-6.348,38.574
1790604238.879089,0.000,-0.488,-4.395,18.066
1790604238.882727,0.000,4.883,-12.207,-12.207
1790604238.886365,0.000,-1.953,-11.230,-16.113
1790604238.890003,0.000,1.465,-5.371,10.254
1790604238.893641,0.000,8.789,-22.949,30.273
1790604238.897278,0.000,9.277,-22.949,9.766
1790604238.903596,-10.254,8.301,-0.488,0.000
1790604238.907246,-28.320,3.418,2.441,7.324
1790604238.910895,17.578,3.418,-7.324,28.320
1790604238.914545,36.621,7.324,-6.348,54.199
1790604238.918195,-5.371,7.324,0.977,26.855
1790604238.921844,-28.320,7.812,-8.301,0.977
1790604238.925494,-19.531,0.977,-16.602,15.625
1790604238.929143,3.906,1.465,-3.906,12.695
1790604238.932793,8.301,5.859,10.742,4.395
1790604238.936442,-33.203,1.465,3.418,6.836
1790604238.940092,-51.270,7.324,-6.836,-3.418
1790604238.943742,-15.137,6.836,-5.371,15.137
1790604238.949780,4.395,2.441,7.324,-1.465
1790604238.953439,-32.227,-3.906,-4.883,-20.508
1790604238.957099,-35.645,-3.906,-21.973,20.508
1790604238.960759,-14.648,0.488,-6.836,62.500
1790604238.964418,3.906,10.254,1.953,41.016
1790604238.968078,-7.812,8.789,-2.441,12.207
1790604238.971737,-16.602,2.441,-4.395,22.461
1790604238.975397,19.531,5.859,4.395,20.508
1790604238.979056,16.602,1.953,10.254,24.414
1790604238.982716,-33.203,0.488,-4.883,3.418
1790604238.986375,-31.250,1.465,-8.301,4.883
1790604238.990035,0.488,-3.906,-3.418,26.855
1790604238.995888,20.508,-2.930,-7.812,7.812
1790604238.999556,-7.812,0.000,2.930,-17.578
1790604239.003224,-47.852,-6.348,4.395,-7.324
1790604239.006893,-16.602,-2.930,-3.418,30.762
1790604239.010561,23.926,-0.488,-6.836,42.480
1790604239.014229,-8.301,-0.977,-8.301,29.297
1790604239.017897,-45.410,-2.930,-6.348,15.137
1790604239.021566,-23.926,-10.254,-8.301,28.320
1790604239.025234,5.371,-11.719,-9.277,31.738
1790604239.028902,5.371,-10.742,-20.996,-17.578
1790604239.032570,-21.973,-7.324,-12.695,-22.461
1790604239.036239,-11.230,-3.906,-1.465,-1.953
1790604239.042032,0.000,-4.395,-6.348,28.809
1790604239.045708,0.000,-2.441,-4.395,35.645
1790604239.049385,0.000,0.000,-11.230,-1.465
1790604239.053061,0.000,0.488,-13.184,-3.418
1790604239.056737,0.000,-7.812,-8.301,-0.488
1790604239.060413,0.000,-4.883,-8.789,20.996
1790604239.064090,0.000,4.883,-12.695,17.090
1790604239.067766,0.000,0.488,-16.602,-32.227
1790604239.071442,0.000,-5.859,-20.020,-19.043
1790604239.075119,0.000,-6.836,-12.207,15.625
1790604239.078795,0.000,-6.348,10.254,16.602
1790604239.082471,0.000,0.488,5.371,-10.742
1790604239.084422,4.883,0.000,-6.348,21.973
1790604239.088092,6.836,-3.906,-0.977,57.617
1790604239.091762,-12.207,-3.418,-3.906,36.621
1790604239.095432,-36.133,-11.719,-4.883,-0.977
1790604239.099102,-17.090,-15.137,-4.395,-19.531
1790604239.102772,-6.836,-11.230,1.953,37.598
1790604239.106442,-11.719,-3.418,13.672,82.520
1790604239.110112,-12.695,-9.766,3.906,50.781
1790604239.113782,-25.391,-20.508,-1.465,0.488
1790604239.117452,-11.230,-16.602,7.324,2.930
1790604239.121123,2.930,-13.672,0.488,38.086
1790604239.124793,-5.859,-17.090,-0.488,10.254
1790604239.130588,-11.230,-21.484,0.488,-10.742
1790604239.134266,0.000,-20.020,17.090,24.902
1790604239.137943,16.602,-20.508,23.438,41.016
1790604239.141620,42.969,-29.785,15.137,19.531
1790604239.145298,23.438,-39.551,18.555,19.531
1790604239.148975,15.625,-43.457,20.508,51.270
1790604239.152653,28.809,-52.734,43.457,60.059
1790604239.156330,31.250,-56.152,36.133,30.762
1790604239.160007,38.574,-45.898,12.207,26.855
1790604239.163685,22.949,-44.922,40.039,78.613
1790604239.167362,19.043,-41.016,57.129,110.352
1790604239.171040,65.430,-36.621,48.340,97.656
1790604239.176737,68.848,-36.621,31.250,59.570
1790604239.180421,38.086,-33.203,35.645,46.875
1790604239.184105,53.711,-27.832,41.504,56.152
1790604239.187789,66.895,-29.297,36.133,67.383
1790604239.191473,71.289,-32.715,36.133,80.078
1790604239.195157,58.594,-27.832,41.504,90.820
1790604239.198842,47.852,-31.738,35.645,80.566
1790604239.202526,83.008,-39.551,35.156,98.145
1790604239.206210,92.773,-45.898,49.805,115.234
1790604239.209894,72.754,-43.457,50.781,79.102
1790604239.213578,63.477,-39.551,52.734,81.055
1790604239.217262,74.219,-42.969,47.852,106.934
1790604239.224028,112.305,-43.457,46.387,107.422
1790604239.227722,85.938,-34.668,54.199,50.293
1790604239.231416,70.801,-25.391,52.734,69.824
1790604239.235110,83.496,-17.090,45.898,125.488
1790604239.238804,104.492,-15.137,48.828,100.586
1790604239.242498,84.961,-15.625,52.734,78.125
1790604239.246192,59.570,-5.859,58.594,58.105
1790604239.249886,74.219,8.301,60.059,83.984
1790604239.253580,104.980,15.625,57.129,125.488
1790604239.257274,89.844,12.207,53.711,113.770
1790604239.260968,41.992,8.301,55.176,69.336
1790604239.264663,54.199,9.766,50.781,77.148
1790604239.271231,0.000,13.184,42.480,99.121
1790604239.274934,0.000,7.812,43.945,95.703
1790604239.278637,0.000,1.953,32.715,60.059
1790604239.282340,0.000,-2.441,33.691,29.785
1790604239.286042,0.000,-4.883,31.738,76.660
1790604239.289745,0.000,1.465,26.855,85.449
1790604239.293448,0.000,6.348,31.250,43.457
1790604239.297151,0.000,0.000,35.645,48.340
1790604239.300854,0.000,2.441,44.434,77.148
1790604239.304557,0.000,5.859,26.367,94.238
1790604239.308260,0.000,4.395,11.230,53.223
1790604239.311963,0.000,9.766,18.066,20.996
1790604239.318257,9.766,-3.418,4.883,27.832
1790604239.321968,13.184,-15.137,-20.020,20.508
1790604239.325678,15.137,-11.719,-23.438,3.906
1790604239.329389,-28.809,-5.859,-21.973,-9.277
1790604239.333099,-37.109,-4.883,-19.531,-0.977
1790604239.336810,16.113,3.906,-18.555,17.090
1790604239.340521,5.371,4.395,-23.438,27.344
1790604239.344231,-53.223,-8.789,-32.227,-19.043
1790604239.347942,-24.414,-2.441,-24.414,-20.508
1790604239.351652,-5.371,12.695,-38.086,12.695
1790604239.355363,-6.836,25.879,-51.270,-13.184
1790604239.359074,-19.531,31.250,-38.086,-6.348
1790604239.365105,0.000,37.598,-40.527,-17.578
1790604239.368822,0.000,50.293,-44.434,-21.973
1790604239.372540,0.000,58.594,-35.156,24.414
1790604239.376257,0.000,63.965,-37.598,-10.742
1790604239.379974,0.000,64.453,-39.551,-53.711
1790604239.383692,0.000,66.406,-41.016,-37.598
1790604239.387409,0.000,73.730,-28.809,-9.277
1790604239.391126,0.000,71.289,-4.395,20.996
1790604239.394843,0.000,68.848,-6.836,-25.391
1790604239.398561,0.000,65.918,-8.789,-45.898
1790604239.402278,0.000,58.594,-5.371,7.324
1790604239.405995,0.000,49.805,-8.301,4.395
1790604239.408852,-84.473,49.316,-20.508,-27.344
1790604239.412567,-56.152,35.156,-25.391,-49.316
1790604239.416282,16.602,22.949,-13.672,-33.203
1790604239.419997,-6.836,20.508,-14.648,-9.277
1790604239.423711,-27.344,7.812,-22.461,-33.691
1790604239.427426,-29.785,3.906,-23.438,-45.410
1790604239.431141,4.395,-0.488,-18.555,-16.602
1790604239.434856,15.137,-3.906,0.488,10.742
1790604239.438571,-28.320,-4.395,-0.977,-8.789
1790604239.442286,-69.336,-5.371,-8.301,-56.152
1790604239.446001,-33.203,-0.488,8.301,-40.039
1790604239.449716,-1.465,-0.488,14.160,9.277
1790604239.455594,-3.418,4.395,10.254,17.090
1790604239.459315,-34.668,3.906,14.648,-16.602
1790604239.463036,-45.410,-8.789,20.020,-6.348
1790604239.466756,-17.578,-11.230,4.883,8.789
1790604239.470477,-15.137,-16.602,0.000,11.230
1790604239.474198,-39.551,-27.344,3.906,3.418
1790604239.477918,-31.250,-26.367,13.184,-7.812
1790604239.481639,-36.621,-30.273,2.930,-13.672
1790604239.485360,-20.508,-37.598,-13.184,-7.324
1790604239.489080,12.695,-30.273,-11.719,-22.949
1790604239.492801,-34.180,-34.180,-9.277,-46.387
1790604239.496522,-37.109,-38.086,-19.531,-37.109
1790604239.502271,-6.836,-32.715,-25.391,-28.809
1790604239.505997,-4.395,-29.785,-15.137,12.207
1790604239.509723,-32.227,-32.227,-20.508,-8.301
1790604239.513449,-59.082,-43.457,-21.973,-26.855
1790604239.517175,-68.359,-60.547,-24.902,-23.438
1790604239.520900,-41.504,-56.641,-27.832,-20.020
1790604239.524626,-35.156,-46.387,-19.531,-5.859
1790604239.528352,-71.777,-42.969,-30.762,-41.016
1790604239.532079,-60.547,-34.180,-40.039,-46.387
1790604239.535805,-24.902,-27.344,-31.738,-8.789
1790604239.539531,-54.199,-25.391,-39.062,-38.086
1790604239.543257,-74.219,-29.785,-45.410,-58.105
1790604239.548876,-55.176,-25.391,-34.180,-18.555
1790604239.552607,-41.504,-21.484,-23.438,-11.230
1790604239.556338,-32.227,-13.184,-24.414,-12.695
1790604239.560068,-48.828,-12.695,-35.645,-49.805
1790604239.563799,-51.758,-13.184,-35.156,-75.195
1790604239.567530,-43.945,-5.859,-14.648,-26.367
1790604239.571261,-58.594,-8.301,-19.043,-34.668
1790604239.574991,-88.379,-10.254,-27.344,-87.891
1790604239.578722,-100.098,-3.906,-23.438,-92.773
1790604239.582453,-79.102,0.488,-10.254,-58.594
1790604239.586184,-64.453,9.766,-0.977,-38.086
1790604239.589915,-85.938,15.137,-4.883,-85.449
1790604239.596335,-120.117,8.789,5.859,-113.770
1790604239.600072,-117.188,5.371,14.160,-103.027
1790604239.603810,-98.145,7.812,8.301,-98.145
1790604239.607547,-121.094,5.859,14.160,-100.586
1790604239.611284,-130.371,8.301,29.785,-108.887
1790604239.615022,-122.070,7.812,20.020,-101.074
1790604239.618759,-97.656,0.488,13.184,-91.797
1790604239.622497,-81.055,-3.418,6.348,-102.051
1790604239.626234,-121.094,-14.160,-2.441,-98.633
1790604239.629971,-133.789,-23.438,0.977,-77.148
1790604239.633709,-106.445,-29.785,-13.184,-71.289
1790604239.637446,-71.777,-30.762,-16.113,-73.242
1790604239.643675,-104.004,-31.738,-27.832,0.000
1790604239.647419,-138.184,-40.039,-38.086,0.000
1790604239.651162,-74.219,-45.410,-38.574,0.000
1790604239.654905,-38.574,-40.527,-38.574,0.000
1790604239.658648,-84.473,-42.480,-38.574,0.000
1790604239.662392,-102.051,-49.316,-46.875,0.000
1790604239.666135,-72.754,-54.688,-70.312,0.000
1790604239.669878,-61.035,-58.594,-74.219,0.000
1790604239.673622,-65.918,-49.316,-52.734,0.000
1790604239.677365,-79.590,-51.270,-46.875,0.000
1790604239.681108,-100.586,-57.617,-53.223,0.000
1790604239.684852,-43.945,-57.129,-56.641,0.000
1790604239.690822,-4.883,-57.617,-62.500,-93.750
1790604239.694571,-59.570,-57.129,-62.988,-84.961
1790604239.698319,-87.402,-52.246,-63.477,-63.477
1790604239.702068,-73.242,-56.152,-76.660,-62.500
1790604239.705816,-52.246,-65.430,-79.590,-78.125
1790604239.709565,-76.660,-65.918,-81.055,-109.375
1790604239.713313,-85.938,-65.918,-85.449,-112.305
1790604239.717062,-49.805,-65.918,-89.355,-129.395
1790604239.720810,-43.457,-66.406,-101.562,-131.836
1790604239.724559,-79.102,-68.848,-95.215,-97.656
1790604239.728307,-93.750,-65.918,-79.590,-91.797
1790604239.732055,-88.379,-67.383,-76.172,-77.637
1790604239.737775,-51.758,-70.801,-95.703,-66.895
1790604239.741528,-41.016,-75.684,-104.004,-94.238
1790604239.745281,-81.543,-83.008,-94.727,-125.488
1790604239.749034,-95.703,-89.355,-107.422,-137.207
1790604239.752787,-62.500,-95.215,-114.258,-120.605
1790604239.756540,-57.129,-93.262,-112.305,-129.395
1790604239.760293,-116.699,-95.215,-110.840,-130.371
1790604239.764045,-114.258,-97.656,-101.074,-94.727
1790604239.767798,-85.449,-102.051,-109.863,-117.188
1790604239.771551,-92.773,-102.539,-129.883,-152.832
1790604239.775304,-92.773,-87.891,-120.117,-147.461
1790604239.779057,-100.098,-75.684,-110.840,-146.973
1790604239.784554,-86.426,-66.406,-113.281,-123.047
1790604239.788311,-50.293,-62.500,-106.934,-85.449
1790604239.792067,-82.031,-61.523,-105.957,-90.820
1790604239.795824,-110.840,-55.176,-109.863,-116.699
1790604239.799581,-77.637,-47.852,-105.469,-116.211
1790604239.803337,-55.664,-44.434,-94.238,-85.938
1790604239.807094,-68.848,-48.340,-89.844,-84.473
1790604239.810851,-86.426,-53.711,-91.797,-134.277
1790604239.814607,-88.379,-58.105,-101.074,-131.836
1790604239.818364,-74.707,-52.734,-95.703,-74.707
1790604239.822121,-62.500,-41.992,-81.055,-74.219
1790604239.825878,-88.867,-43.945,-94.238,-89.355
1790604239.831371,-98.633,-51.270,-103.027,0.000
1790604239.835132,-65.918,-47.363,-85.449,0.000
1790604239.838892,-29.297,-36.133,-76.660,0.000
1790604239.842653,-57.617,-30.762,-80.566,0.000
1790604239.846413,-90.332,-26.855,-81.543,0.000
1790604239.850173,-81.543,-20.020,-81.055,0.000
1790604239.853934,-53.223,-16.602,-82.031,0.000
1790604239.857694,-51.758,-19.043,-81.055,0.000
1790604239.861455,-79.102,-20.020,-77.637,0.000
1790604239.865215,-71.289,-8.301,-79.590,0.000
1790604239.868975,-41.992,-1.465,-71.289,0.000
1790604239.872736,-48.828,-6.348,-66.895,0.000
1790604239.878037,-88.379,-5.371,-83.008,-106.445
1790604239.881800,-76.660,-5.859,-69.824,-113.281
1790604239.885564,-50.293,-7.812,-68.848,-84.473
1790604239.889328,-44.434,-10.254,-79.102,-60.059
1790604239.893091,-93.750,-24.902,-77.637,-65.430
1790604239.896855,-112.305,-24.902,-65.430,-102.539
1790604239.900619,-66.895,-18.066,-59.082,-76.660
1790604239.904382,-51.270,-23.438,-74.707,-45.898
1790604239.908146,-72.754,-23.926,-81.543,-83.984
1790604239.911910,-91.797,-22.949,-73.242,-113.770
1790604239.915673,-78.125,-22.949,-85.449,-95.215
1790604239.919437,-27.832,-18.555,-100.098,-59.082
1790604239.924784,-50.293,-17.090,-84.473,-79.590
1790604239.928551,-99.609,-19.043,-77.148,-127.441
1790604239.932317,-92.773,-20.020,-87.891,-105.957
1790604239.936085,-71.289,-29.297,-96.191,-63.965
1790604239.939851,-65.918,-30.273,-93.750,-68.359
1790604239.943618,-71.777,-20.020,-77.148,-89.844
1790604239.947385,-64.453,-22.949,-76.660,-89.355
1790604239.951152,-57.617,-28.320,-81.055,-76.660
1790604239.954919,-57.129,-31.738,-72.266,-39.062
1790604239.958686,-86.426,-23.438,-63.477,-45.898
1790604239.962452,-100.098,-18.555,-61.035,-111.816
1790604239.966219,-74.707,-24.902,-59.082,-79.102
1790604239.972127,-48.340,-25.879,-59.082,-62.012
1790604239.975898,-62.012,-29.785,-65.430,-106.445
1790604239.979669,-99.609,-33.691,-65.918,-85.449
1790604239.983441,-96.191,-34.180,-62.500,-72.754
1790604239.987212,-49.316,-41.504,-58.594,-56.641
1790604239.990983,-43.945,-41.504,-62.988,-77.637
1790604239.994754,-92.773,-37.598,-71.777,-115.234
1790604239.998525,-113.281,-40.039,-59.570,-73.730
1790604240.002296,-75.195,-38.086,-52.734,-33.203
1790604240.006067,-20.996,-28.320,-63.965,-12.207
1790604240.009838,-83.984,-28.320,-61.523,-55.664
1790604240.013609,-108.398,-30.762,-60.059,-111.328
1790604240.019423,0.000,-27.344,-55.176,-64.941
1790604240.023198,0.000,-28.809,-43.945,-30.762
1790604240.026973,0.000,-34.180,-54.199,-73.730
1790604240.030748,0.000,-46.387,-43.457,-82.520
1790604240.034523,0.000,-51.758,-44.434,-64.453
1790604240.038299,0.000,-45.410,-62.988,-39.062
1790604240.042073,0.000,-56.152,-58.594,-55.176
1790604240.045849,0.000,-56.641,-58.594,-91.797
1790604240.049624,0.000,-49.316,-54.688,-68.359
1790604240.053399,0.000,-49.316,-62.012,-43.457
1790604240.057174,0.000,-53.711,-75.684,-63.965
1790604240.060949,0.000,-58.105,-55.176,-70.312
1790604240.066576,-107.910,-59.082,-41.016,-76.660
1790604240.070354,-45.410,-52.246,-65.430,-43.945
1790604240.074133,-15.137,-49.316,-66.406,-5.859
1790604240.077912,-58.594,-54.199,-46.387,-54.199
1790604240.081690,-77.637,-52.246,-42.480,-76.172
1790604240.085469,-32.715,-44.922,-61.035,-78.125
1790604240.089247,-9.766,-46.875,-59.570,-28.809
1790604240.093026,-52.734,-52.246,-29.297,3.906
1790604240.096804,-62.012,-41.992,-28.320,-49.805
1790604240.100583,-53.223,-40.039,-45.898,-60.059
1790604240.104362,-16.113,-42.969,-39.551,-0.977
1790604240.108140,-34.180,-39.062,-35.645,-0.977
1790604240.113531,-57.617,-36.133,-36.621,-27.344
1790604240.117313,-46.875,-38.574,-41.504,-55.664
1790604240.121094,-15.625,-45.410,-52.734,-60.059
1790604240.124876,-7.324,-55.664,-41.504,-34.668
1790604240.128657,-33.691,-51.758,-38.574,-39.062
1790604240.132439,-61.035,-46.875,-49.316,-46.875
1790604240.136220,-68.848,-54.199,-54.199,-27.832
1790604240.140002,-37.598,-53.711,-52.246,-18.066
1790604240.143784,-57.129,-55.664,-55.176,-39.551
1790604240.147565,-73.242,-65.430,-59.082,-62.500
1790604240.151347,-48.340,-63.965,-53.223,-39.551
1790604240.155128,-38.574,-64.453,-55.176,-21.484
1790604240.160417,-53.223,-64.941,-46.387,-68.848
1790604240.164201,-87.891,-65.430,-32.227,-74.219
1790604240.167986,-73.242,-59.570,-38.574,-11.719
1790604240.171770,-23.438,-51.758,-46.875,18.555
1790604240.175555,-30.762,-55.176,-43.945,-20.508
1790604240.179339,-75.195,-62.012,-28.809,-73.730
1790604240.183123,-40.527,-67.871,-31.250,-43.945
1790604240.186907,6.836,-73.242,-32.715,19.043
1790604240.190692,-47.852,-79.102,-32.227,8.301
1790604240.194476,-60.547,-74.707,-29.785,-36.621
1790604240.198260,-48.340,-74.707,-12.207,-42.969
1790604240.202044,-49.805,-72.266,-22.461,12.695
1790604240.207984,-37.598,-63.477,-36.133,29.785
1790604240.211772,-55.664,-56.152,-20.020,-24.902
1790604240.215560,-77.148,-57.617,-18.555,-48.340
1790604240.219348,-46.875,-62.012,-25.391,-19.531
1790604240.223136,-16.602,-61.035,-29.785,12.207
1790604240.226925,-62.012,-63.965,-15.625,-20.996
1790604240.230713,-71.289,-58.105,-14.648,-44.434
1790604240.234501,-64.453,-53.223,-34.668,-43.945
1790604240.238289,-53.223,-59.570,-47.852,-8.789
1790604240.242077,-61.035,-63.477,-43.457,7.812
1790604240.245865,-83.008,-67.871,-40.039,-40.039
1790604240.249653,-62.500,-66.406,-51.270,-43.945
1790604240.254688,-29.785,-56.641,-56.641,-20.020
1790604240.258478,-35.156,-59.570,-32.227,-23.926
1790604240.262269,-72.266,-56.641,-22.949,-36.133
1790604240.266059,-79.102,-53.223,-39.551,-16.113
1790604240.269849,-58.594,-59.570,-40.527,24.902
1790604240.273639,-42.969,-68.359,-34.180,25.391
1790604240.277430,-62.988,-62.012,-34.180,-10.254
1790604240.281220,-72.754,-55.664,-45.410,-16.113
1790604240.285010,-50.781,-62.012,-50.781,-27.832
1790604240.288800,-20.508,-62.500,-43.945,13.672
1790604240.292591,-41.016,-57.129,-29.297,28.320
1790604240.296381,-89.844,-57.617,-40.039,-26.855
1790604240.301345,-86.426,-51.758,-53.223,-37.109
1790604240.305137,-29.297,-48.828,-41.504,9.766
1790604240.308929,-15.137,-44.434,-37.109,14.648
1790604240.312721,-59.082,-36.621,-46.387,-35.645
1790604240.316514,-55.176,-34.180,-45.410,-66.895
1790604240.320306,-14.648,-21.484,-33.203,-3.906
1790604240.324098,-14.160,-25.391,-30.762,21.973
1790604240.327890,-44.922,-32.715,-52.734,-36.133
1790604240.331683,-50.293,-15.137,-51.270,-22.949
1790604240.335475,-20.020,-10.254,-24.414,23.926
1790604240.339267,-0.488,-15.625,-26.855,54.199
1790604240.343060,-23.438,-16.602,-41.016,-7.324
1790604240.348740,-62.500,-19.531,-30.273,-34.180
1790604240.352536,-50.781,-27.344,-24.414,0.000
1790604240.356331,-12.207,-33.203,-43.457,6.836
1790604240.360126,-16.602,-32.715,-47.363,11.230
1790604240.363922,-36.133,-34.180,-39.551,-11.230
1790604240.367717,-30.273,-39.062,-48.828,-19.531
1790604240.371513,-11.719,-39.062,-58.105,31.738
1790604240.375308,-6.348,-32.227,-51.270,30.273
1790604240.379103,-32.227,-21.484,-36.133,-0.977
1790604240.382899,-30.762,-24.902,-30.273,-3.906
1790604240.386694,-7.812,-29.297,-45.898,-9.277
1790604240.390490,-8.789,-32.227,-48.828,12.207
1790604240.396045,-44.434,-39.062,-51.758,-13.184
1790604240.399843,-58.594,-40.039,-51.758,-46.875
1790604240.403642,-21.484,-39.551,-56.641,1.953
1790604240.407440,-19.043,-44.922,-51.270,35.645
1790604240.411238,-52.734,-47.363,-42.480,8.789
1790604240.415036,-59.570,-41.016,-55.176,-25.879
1790604240.418835,-65.430,-48.828,-56.641,-11.719
1790604240.422633,-41.992,-51.758,-57.129,39.551
1790604240.426431,-24.902,-36.133,-51.758,23.438
1790604240.430230,-67.871,-41.016,-58.594,-29.297
1790604240.434028,-75.195,-50.293,-64.453,-15.625
1790604240.437826,-21.973,-41.016,-55.664,20.508
1790604240.443094,-16.602,-39.062,-54.688,8.301
1790604240.446895,-43.457,-39.551,-57.129,-26.367
1790604240.450696,-63.477,-39.062,-62.988,-37.598
1790604240.454496,-41.016,-42.480,-58.105,2.441
1790604240.458297,-22.461,-40.039,-59.082,29.785
1790604240.462098,-43.457,-38.086,-58.594,-22.949
1790604240.465898,-64.453,-39.551,-58.594,-84.961
1790604240.469699,-54.199,-42.480,-53.711,-45.410
1790604240.473500,-20.508,-35.645,-53.223,3.418
1790604240.477300,-64.941,-30.273,-57.129,-26.855
1790604240.481101,-87.891,-33.203,-56.152,-59.082
1790604240.484902,-59.570,-33.203,-53.711,-35.156
1790604240.490110,0.000,-28.809,-51.270,0.000
1790604240.493913,0.000,-28.320,-51.758,0.000
1790604240.497716,0.000,-27.832,-39.551,0.000
1790604240.501519,0.000,-18.066,-35.156,0.000
1790604240.505322,0.000,-22.461,-41.504,0.000
1790604240.509125,0.000,-25.391,-47.363,0.000
1790604240.512928,0.000,-24.414,-40.527,0.000
1790604240.516730,0.000,-21.973,-29.785,0.000
1790604240.520533,0.000,-19.531,-41.504,0.000
1790604240.524336,0.000,-24.902,-52.734,0.000
1790604240.528139,0.000,-26.367,-50.293,0.000
1790604240.531942,0.000,-23.438,-43.457,0.000
1790604240.535233,-35.645,-16.602,0.000,-42.480
1790604240.539035,-33.203,-13.672,0.000,-9.766
1790604240.542837,-75.195,-15.137,0.000,-30.762
1790604240.546639,-70.312,-16.113,0.000,-52.734
1790604240.550441,-41.016,-14.160,0.000,-41.992
1790604240.554243,-31.738,-9.277,0.000,-11.230
1790604240.558045,-67.383,-5.371,0.000,-10.742
1790604240.561847,-67.383,0.488,0.000,-49.805
1790604240.565650,-36.133,5.371,0.000,-53.223
1790604240.569452,-59.570,-0.488,0.000,-23.926
1790604240.573254,-86.914,-7.812,0.000,12.695
1790604240.577056,-54.688,-6.836,0.000,-20.020
1790604240.582101,-64.941,0.000,-39.062,-25.879
1790604240.585905,-48.340,1.953,-44.434,10.742
1790604240.589709,-25.391,1.953,-33.691,0.000
1790604240.593513,-36.133,3.418,-32.227,-18.066
1790604240.597317,-57.129,-1.953,-35.645,-33.691
1790604240.601120,-28.809,-0.977,-28.809,-19.531
1790604240.604924,15.137,4.395,-22.461,17.578
1790604240.608728,-8.789,1.465,-29.785,3.906
1790604240.612532,-43.945,0.000,-31.250,-53.711
1790604240.616336,-32.227,7.812,-30.273,-32.227
1790604240.620140,-15.137,2.930,-37.598,26.855
1790604240.623944,-0.977,-2.930,-35.156,22.461
1790604240.628937,-31.738,-3.418,-31.250,-24.414
1790604240.632743,-57.129,-8.301,-15.625,-26.367
1790604240.636548,-22.461,-11.230,-20.508,3.906
1790604240.640354,-7.324,-10.742,-29.785,1.953
1790604240.644160,-13.672,0.977,-26.367,-42.480
1790604240.647965,-29.297,3.418,-23.926,-35.156
1790604240.651771,-10.742,-1.465,-19.531,24.902
1790604240.655577,-8.301,-5.859,-23.438,36.133
1790604240.659383,-51.270,-9.277,-28.809,-15.625
1790604240.663188,-58.105,-3.418,-25.879,-18.555
1790604240.666994,-32.715,-2.930,-28.320,12.695
1790604240.670800,6.348,-5.859,-34.180,30.762
1790604240.675683,-20.020,-6.836,-25.879,20.020
1790604240.679490,-57.617,-3.906,-21.973,-10.254
1790604240.683297,-42.480,-8.301,-30.273,14.160
1790604240.687104,8.789,-9.277,-21.973,30.762
1790604240.690912,2.930,-0.977,-23.926,18.066
1790604240.694719,-41.504,4.883,-31.738,15.625
1790604240.698526,-35.156,8.789,-26.855,13.184
1790604240.702334,-9.766,13.672,-13.184,16.113
1790604240.706141,-19.531,25.879,-12.207,6.348
1790604240.709948,4.883,38.086,-25.391,-11.230
1790604240.713756,5.859,32.227,-26.855,17.578
1790604240.717563,-0.488,29.297,-4.883,51.758
1790604240.722887,33.203,30.273,13.184,74.219
1790604240.726697,19.043,28.320,16.602,50.781
1790604240.730506,-18.066,34.668,6.836,5.859
1790604240.734316,-17.578,28.809,8.789,21.484
1790604240.738125,28.320,18.555,16.113,52.246
1790604240.741935,11.230,17.090,-1.953,16.113
1790604240.745744,-29.785,7.812,-19.043,-14.160
1790604240.749554,-27.344,-7.324,-17.578,4.395
1790604240.753363,8.301,-6.348,-19.531,31.250
1790604240.757173,20.508,-4.883,-26.855,52.734
1790604240.760982,-23.438,-13.672,-17.578,27.344
1790604240.764791,-33.691,-16.113,-16.113,-1.953
1790604240.769986,3.418,-11.230,-22.949,27.832
1790604240.773797,-12.207,-15.625,-18.555,32.227
1790604240.777609,-33.203,-13.672,-29.785,-24.414
1790604240.781420,-29.297,-18.555,-39.062,-9.766
1790604240.785232,-17.090,-28.320,-32.227,2.441
1790604240.789043,16.602,-28.320,-38.574,-6.836
1790604240.792855,-21.484,-35.156,-33.203,-2.441
1790604240.796666,-45.410,-30.762,-29.297,-18.555
1790604240.800478,-8.301,-23.926,-28.320,8.789
1790604240.804289,-13.672,-28.809,-27.344,36.621
1790604240.808100,-21.484,-28.809,-35.156,3.418
1790604240.811912,-11.719,-26.855,-30.273,-17.090
1790604240.817031,-32.715,-30.762,-25.391,-17.578
1790604240.820844,1.465,-29.785,-38.086,6.836
1790604240.824657,18.066,-29.785,-51.758,3.906
1790604240.828470,-20.020,-28.809,-43.945,-29.297
1790604240.832284,-15.137,-24.414,-38.574,-6.836
1790604240.836097,-0.977,-20.996,-38.086,27.344
1790604240.839910,-4.395,-21.484,-37.109,15.625
1790604240.843724,-43.945,-17.090,-38.086,-15.137
1790604240.847537,-60.059,-11.719,-37.109,-37.598
1790604240.851350,-44.434,-20.020,-38.574,-20.020
1790604240.855163,-13.184,-20.020,-37.109,-1.953
1790604240.858977,-4.883,-7.812,-42.969,-3.418
1790604240.864027,-43.945,-1.953,-29.297,-18.066
1790604240.867842,-29.297,-6.348,-30.762,-23.438
1790604240.871657,-25.391,-16.602,-40.527,9.766
1790604240.875472,-32.715,-24.414,-37.598,20.996
1790604240.879287,-44.434,-23.926,-38.086,-15.625
1790604240.883102,-26.855,-23.438,-36.621,-17.578
1790604240.886917,-0.977,-29.297,-39.062,14.648
1790604240.890732,-6.836,-36.133,-25.879,20.996
1790604240.894547,-46.387,-27.832,-28.809,-25.391
1790604240.898361,-82.031,-24.902,-44.922,-70.312
1790604240.902176,-38.574,-23.438,-50.781,-43.945
1790604240.905991,-13.184,-19.043,-55.664,-43.457
1790604240.911530,-39.551,-16.602,-51.270,-54.688
1790604240.915347,-40.039,-18.066,-35.156,-37.598
1790604240.919165,-14.160,-16.602,-25.391,-25.879
1790604240.922982,3.418,-8.301,-40.527,-10.254
1790604240.926799,-32.715,-14.160,-34.668,-26.367
1790604240.930616,-54.688,-11.230,-35.645,-47.852
1790604240.934434,-27.344,1.953,-40.039,-23.438
1790604240.938251,10.742,2.441,-23.438,4.883
1790604240.942068,28.809,2.930,-33.691,-26.855
1790604240.945885,-4.395,4.883,-31.738,-37.598
1790604240.949703,-22.461,-1.465,-12.695,16.602
1790604240.953520,3.418,6.348,-18.555,20.508
1790604240.958351,6.836,5.859,-28.809,28.809
1790604240.962169,-17.578,-8.789,-13.672,-0.488
1790604240.965988,-23.438,-12.695,-10.742,0.488
1790604240.969807,-3.418,-20.020,-24.902,14.648
1790604240.973625,25.879,-19.043,-32.715,-7.812
1790604240.977444,-14.648,-13.184,-28.809,-11.719
1790604240.981262,-52.734,-20.020,-28.320,-45.898
1790604240.985081,-21.973,-25.391,-39.062,-38.574
1790604240.988900,0.488,-21.973,-28.809,29.297
1790604240.992718,-17.578,-12.207,-23.926,45.898
1790604240.996537,-29.297,-10.742,-18.555,0.488
1790604241.000355,-13.184,-13.672,-31.738,1.465
1790604241.005094,10.254,-17.090,-36.621,10.742
1790604241.008914,12.695,-11.230,-22.949,12.207
1790604241.012733,-32.715,0.488,-29.297,-23.438
1790604241.016553,-51.758,-1.953,-22.461,-24.414
1790604241.020373,-4.395,3.418,-18.555,9.766
1790604241.024193,-5.371,9.277,-28.320,21.484
1790604241.028013,-24.902,0.488,-15.625,16.602
1790604241.031832,-28.809,-2.441,-6.348,-5.371
1790604241.035652,-37.598,-3.418,-15.625,-0.488
1790604241.039472,-9.277,-2.930,-11.230,21.973
1790604241.043292,-16.113,0.977,-16.113,-6.836
1790604241.047112,-67.383,-11.719,-28.320,-31.738
1790604241.051829,-26.855,-20.020,-27.344,-28.320
1790604241.055650,13.672,-18.066,-16.602,8.301
1790604241.059471,-41.016,-22.949,-18.555,17.578
1790604241.063292,-47.363,-18.066,-29.785,-17.578
1790604241.067113,-9.277,-15.625,-25.879,10.742
1790604241.070934,4.883,-18.555,-11.719,52.734
1790604241.074754,-1.465,-25.879,-9.277,27.344
1790604241.078575,-29.297,-22.949,-27.344,-17.090
1790604241.082397,-32.227,-12.695,-27.344,-6.836
1790604241.086217,2.441,-8.789,-21.973,15.137
1790604241.090038,31.250,-7.812,-23.438,11.719
1790604241.093859,6.836,-11.719,-16.602,6.348
1790604241.099097,-24.414,-15.137,-10.254,12.695
1790604241.102919,-25.391,-13.672,-11.719,10.254
1790604241.106742,2.930,-10.254,-9.766,12.207
1790604241.110565,12.695,-12.207,-4.395,38.086
1790604241.114388,-30.273,-11.230,-13.672,22.949
1790604241.118210,-30.273,-2.930,-19.043,10.254
1790604241.122033,13.184,1.465,-22.949,21.484
1790604241.125856,6.348,3.418,-24.902,14.648
1790604241.129678,-14.648,12.207,-7.324,2.930
1790604241.133501,0.488,11.719,-2.930,26.367
1790604241.137324,10.742,0.000,-18.066,32.715
1790604241.141147,9.277,2.441,-24.414,20.996
1790604241.146255,-14.160,8.301,-15.137,-14.648
1790604241.150079,-33.203,6.348,0.977,-25.391
1790604241.153904,4.395,11.719,-8.301,0.488
1790604241.157728,16.602,20.020,-21.484,19.531
1790604241.161552,-6.836,17.090,-10.254,15.137
1790604241.165377,-16.602,11.719,-14.648,-9.766
1790604241.169201,-28.809,11.230,-24.414,-11.230
1790604241.173025,8.301,9.766,-17.090,9.277
1790604241.176850,29.297,12.207,-0.977,37.598
1790604241.180674,-17.090,15.137,-1.465,38.086
1790604241.184498,-24.414,20.996,-8.301,13.184
1790604241.188323,18.555,19.531,7.812,47.852
1790604241.193272,56.641,21.484,16.602,41.992
1790604241.197097,40.527,29.297,9.277,32.715
1790604241.200923,14.160,22.949,2.930,62.012
1790604241.204749,39.551,19.531,10.254,71.289
1790604241.208575,58.105,25.879,8.301,52.734
1790604241.212400,20.996,21.973,0.977,23.926
1790604241.216226,-5.371,20.020,6.348,16.113
1790604241.220052,13.184,20.508,0.977,12.207
1790604241.223877,50.293,14.160,-3.906,31.738
1790604241.227703,15.625,3.906,-16.113,17.090
1790604241.231529,-23.438,-0.488,-29.785,17.578
1790604241.235354,-6.836,-3.418,-20.020,-5.371
1790604241.240246,22.461,-6.836,-19.531,1.953
1790604241.244073,4.883,-8.789,-26.855,43.457
1790604241.247900,-41.016,-5.859,-26.367,13.672
1790604241.251727,-43.945,-9.277,-22.461,-0.488
1790604241.255554,7.324,-11.719,-25.879,14.160
1790604241.259381,7.324,-11.719,-36.133,19.043
1790604241.263208,-50.293,-16.602,-39.062,-22.461
1790604241.267035,-42.969,-7.324,-27.344,-28.320
1790604241.270862,0.977,-7.812,-28.320,2.441
1790604241.274689,2.441,-20.508,-34.668,0.977
1790604241.278516,-45.898,-21.973,-31.250,-17.090
1790604241.282343,-70.801,-22.949,-31.250,-32.227
1790604241.287166,0.000,-21.484,-33.691,-1.465
1790604241.290995,0.000,-26.855,-34.668,36.133
1790604241.294823,0.000,-36.133,-27.832,24.902
1790604241.298651,0.000,-34.668,-16.113,-24.414
1790604241.302479,0.000,-33.691,-15.625,-21.973
1790604241.306307,0.000,-38.086,-26.367,23.438
1790604241.310136,0.000,-40.039,-28.809,14.648
1790604241.313964,0.000,-42.480,-27.344,-45.898
1790604241.317792,0.000,-46.387,-34.668,-45.898
1790604241.321620,0.000,-52.734,-31.738,7.812
1790604241.325448,0.000,-60.547,-20.508,9.766
1790604241.329277,0.000,-59.570,-28.320,-34.668
1790604241.332475,-29.785,-58.594,-31.250,-18.555
1790604241.336303,-1.953,-56.152,-28.320,24.414
1790604241.340130,-42.969,-52.734,-32.227,15.137
1790604241.343957,-56.641,-54.199,-40.039,-23.926
1790604241.347785,-21.484,-56.641,-58.594,-54.199
1790604241.351612,-11.719,-59.570,-46.875,-34.668
1790604241.355440,-18.555,-57.129,-29.785,17.090
1790604241.359267,-19.531,-52.734,-46.875,-17.090
1790604241.363095,-18.066,-58.105,-54.199,-44.922
1790604241.366922,-22.949,-60.547,-55.176,-23.926
1790604241.370749,-15.137,-50.293,-50.293,4.883
1790604241.374577,-34.180,-38.574,-39.551,16.113
1790604241.379796,-23.438,-33.691,-29.785,-20.996
1790604241.383625,-36.621,-31.250,-20.020,-6.836
1790604241.387454,0.977,-16.602,-28.320,21.484
1790604241.391283,27.832,-10.254,-35.645,30.273
1790604241.395112,-25.391,-16.113,-20.508,-1.465
1790604241.398941,-53.711,-22.461,-19.531,-38.574
1790604241.402770,-12.695,-32.227,-35.156,9.766
1790604241.406599,-1.465,-37.598,-39.062,42.969
1790604241.410429,-44.922,-36.133,-33.203,-16.113
1790604241.414258,-46.387,-34.180,-29.785,-52.246
1790604241.418087,-32.227,-40.527,-36.133,-7.812
1790604241.421916,-16.113,-50.293,-41.016,6.348
1790604241.426486,-42.480,-58.105,-48.828,-12.207
1790604241.430316,-85.938,-55.664,-39.062,-14.160
1790604241.434146,-62.988,-51.270,-43.945,-12.695
1790604241.437975,-20.508,-58.105,-56.641,-18.555
1790604241.441805,-15.625,-58.105,-51.270,-17.578
1790604241.445635,-38.574,-59.570,-47.852,-27.832
1790604241.449465,-44.922,-63.965,-55.664,-38.574
1790604241.453295,-25.879,-52.734,-57.129,-17.578
1790604241.457125,-15.137,-45.898,-54.688,-20.508
1790604241.460955,-36.621,-53.223,-56.641,-38.086
1790604241.464785,-68.359,-63.477,-58.594,-44.434
1790604241.468615,-51.758,-65.430,-61.035,-30.762
1790604241.473782,-15.625,-63.477,-47.363,11.230
1790604241.477613,-43.457,-68.359,-32.715,-13.672
1790604241.481445,-72.754,-70.801,-44.434,-59.082
1790604241.485276,-59.082,-64.941,-51.758,-21.484
1790604241.489108,-14.160,-58.105,-41.992,18.066
1790604241.492939,-20.996,-48.340,-34.180,26.855
1790604241.496770,-57.129,-44.922,-32.227,-9.277
1790604241.500602,-62.988,-53.711,-41.016,-49.805
1790604241.504433,-15.625,-47.363,-31.250,-19.043
1790604241.508265,-9.277,-31.738,-26.367,8.301
1790604241.512096,-69.336,-42.480,-27.832,-34.668
1790604241.515928,-67.383,-50.293,-31.250,-29.785
1790604241.520939,0.000,-49.316,0.000,-2.930
1790604241.524771,0.000,-52.246,0.000,15.137
1790604241.528604,0.000,-50.781,0.000,-15.625
1790604241.532437,0.000,-54.688,0.000,-49.316
1790604241.536269,0.000,-49.805,0.000,-16.602
1790604241.540102,0.000,-43.945,0.000,-5.859
1790604241.543935,0.000,-51.758,0.000,-24.902
1790604241.547768,0.000,-52.246,0.000,-27.832
1790604241.551600,0.000,-44.922,0.000,18.066
1790604241.555433,0.000,-45.410,0.000,12.695
1790604241.559266,0.000,-50.293,0.000,-25.879
1790604241.563098,0.000,-47.852,0.000,-47.852
1790604241.568017,-68.359,-38.574,-42.480,-42.969
1790604241.571851,-22.949,-38.086,-46.387,-20.996
1790604241.575685,-25.391,-37.109,-58.105,-10.742
1790604241.579518,-68.359,-38.574,-55.176,-4.395
1790604241.583352,-59.570,-39.551,-50.293,-30.762
1790604241.587186,-23.438,-35.156,-43.945,-41.992
1790604241.591020,-1.953,-25.879,-36.621,-13.184
1790604241.594854,-29.297,-21.973,-26.367,-3.906
1790604241.598688,-39.551,-26.367,-20.996,-11.230
1790604241.602522,-25.391,-33.691,-29.785,-25.391
1790604241.606356,-2.930,-33.203,-28.320,-11.719
1790604241.610190,-13.672,-26.855,-20.020,7.812
1790604241.615016,-36.621,-27.832,-25.391,-11.719
1790604241.618850,-34.180,-28.320,-21.973,-7.812
1790604241.622686,-2.441,-23.438,-31.250,20.996
1790604241.626521,2.441,-18.066,-33.691,20.996
1790604241.630356,-49.805,-16.113,-17.578,-7.812
1790604241.634191,-62.500,-19.043,-18.066,2.441
1790604241.638026,-20.508,-25.391,-18.066,10.742
1790604241.641860,17.578,-29.785,-12.207,17.090
1790604241.645695,-24.902,-38.574,-17.090,0.488
1790604241.649530,-57.129,-43.457,-26.367,-19.531
1790604241.653365,-8.789,-33.691,-22.949,13.184
1790604241.657200,21.973,-40.039,-21.973,37.109
1790604241.661944,-18.066,-45.898,-17.090,10.742
1790604241.665780,-44.922,-38.574,-19.043,-29.297
1790604241.669616,-8.301,-34.668,-16.602,-0.488
1790604241.673452,-1.465,-35.156,-17.090,29.297
1790604241.677288,-23.438,-36.621,-31.250,3.906
1790604241.681124,-29.297,-40.527,-32.715,-25.391
1790604241.684960,-15.137,-39.551,-29.297,-21.484
1790604241.688796,17.578,-35.156,-15.625,22.949
1790604241.692632,11.719,-41.992,-16.602,31.738
1790604241.696468,-28.809,-50.293,-13.672,-1.465
1790604241.700304,-22.461,-49.805,-15.625,-15.137
1790604241.704140,6.348,-50.781,-19.043,4.883
1790604241.708779,-0.488,-47.852,-16.113,16.113
1790604241.712615,-37.598,-49.316,-28.320,-7.324
1790604241.716452,-28.809,-43.457,-22.461,-20.020
1790604241.720289,-0.488,-36.621,-24.902,-22.949
1790604241.724126,21.973,-40.039,-31.738,-1.953
1790604241.727963,-9.277,-40.527,-22.461,-3.906
1790604241.731799,-37.109,-42.480,-3.418,7.324
1790604241.735636,-8.789,-39.062,-8.301,25.879
1790604241.739473,5.371,-34.180,-23.926,19.043
1790604241.743310,-7.324,-27.832,-19.531,18.066
1790604241.747147,-23.926,-26.855,-7.324,-2.930
1790604241.750983,-26.855,-35.645,-4.395,-16.113
1790604241.756068,-9.277,-32.715,-14.648,14.160
1790604241.759906,7.324,-28.320,-11.719,19.043
1790604241.763744,-24.414,-27.832,-20.508,-7.812
1790604241.767582,-31.250,-27.344,-19.531,17.578
1790604241.771420,7.812,-30.762,-18.066,38.574
1790604241.775258,20.020,-40.527,-8.301,23.438
1790604241.779096,7.324,-44.434,1.953,39.062
1790604241.782934,-41.992,-43.457,-15.625,1.953
1790604241.786772,-42.969,-39.062,-30.762,-20.508
1790604241.790610,-4.883,-32.227,-28.320,-0.488
1790604241.794449,-10.254,-30.762,-26.367,4.883
1790604241.798287,-24.414,-30.273,-13.672,-14.648
1790604241.802755,-27.832,-31.738,-11.719,-27.832
1790604241.806594,-2.441,-35.156,-19.043,17.090
1790604241.810433,6.836,-31.250,-17.090,14.648
1790604241.814271,-28.809,-26.367,-21.484,-18.066
1790604241.818110,-31.738,-27.832,-32.227,-9.766
1790604241.821949,-9.277,-30.273,-28.809,7.324
1790604241.825788,11.719,-35.645,-15.137,30.762
1790604241.829626,-5.371,-40.039,-14.648,0.000
1790604241.833465,-46.875,-52.734,-10.254,-52.246
1790604241.837304,-21.973,-52.246,-3.906,-5.859
1790604241.841143,22.949,-46.387,-11.230,25.391
1790604241.844981,-21.484,-47.363,-13.672,-6.348
1790604241.849972,-37.598,-39.062,-6.348,-12.695
1790604241.853812,-2.930,-39.062,-23.438,-9.277
1790604241.857652,13.184,-45.410,-21.484,30.273
1790604241.861492,14.648,-42.969,-0.488,46.387
1790604241.865332,-11.719,-41.504,-5.371,18.066
1790604241.869172,2.930,-36.621,-13.184,7.324
1790604241.873011,24.414,-25.391,-8.301,23.438
1790604241.876851,-1.953,-20.508,-10.742,35.645
1790604241.880691,-22.949,-19.043,-16.113,11.230
1790604241.884531,-26.367,-18.066,-9.766,3.418
1790604241.888371,9.277,-17.578,-17.090,-5.859
1790604241.892211,14.648,-8.789,-27.344,0.488
1790604241.897090,-24.414,-0.977,-16.602,-0.977
1790604241.900931,-23.438,2.441,-19.043,-21.484
1790604241.904772,-0.488,0.977,-13.184,0.977
1790604241.908613,23.926,-11.230,-15.137,40.039
1790604241.912454,16.113,-12.695,-14.160,21.973
1790604241.916295,-22.461,-12.695,-9.766,0.000
1790604241.920136,-16.602,-22.949,-27.344,3.418
1790604241.923977,33.691,-25.879,-21.484,2.441
1790604241.927818,36.621,-21.973,-1.953,50.781
1790604241.931659,-18.066,-23.438,-7.812,33.203
1790604241.935500,-45.410,-31.738,-26.367,-14.160
1790604241.939341,6.348,-35.156,-20.996,17.090
1790604241.944128,0.000,-38.574,-20.020,48.828
1790604241.947970,0.000,-40.527,-27.344,-7.324
1790604241.951812,0.000,-37.598,-20.508,-33.691
1790604241.955653,0.000,-24.414,-13.672,3.418
1790604241.959495,0.000,-24.902,-8.301,14.648
1790604241.963337,0.000,-33.203,-9.277,2.930
1790604241.967179,0.000,-33.203,-10.254,6.836
1790604241.971021,0.000,-36.621,-17.578,13.672
1790604241.974863,0.000,-32.715,-3.418,27.344
1790604241.978705,0.000,-19.043,1.465,8.789
1790604241.982547,0.000,-16.602,-17.578,-30.273
1790604241.986389,0.000,-21.973,-23.926,-14.648
1790604241.991129,42.969,-24.414,0.000,35.645
1790604241.994972,3.418,-21.484,0.000,15.625
1790604241.998815,-37.598,-21.973,0.000,-37.109
1790604242.002658,-13.672,-20.508,0.000,-14.160
1790604242.006500,9.766,-11.719,0.000,14.160
1790604242.010343,17.090,-11.230,0.000,13.672
1790604242.014186,-12.695,-18.066,0.000,-27.832
1790604242.018029,-25.391,-25.391,0.000,-31.738
1790604242.021872,-17.090,-34.180,0.000,16.113
1790604242.025714,2.930,-41.504,0.000,9.277
1790604242.029557,-11.230,-37.598,0.000,-1.953
1790604242.033400,-42.969,-35.156,0.000,-0.488
1790604242.038062,-15.137,-39.551,-30.273,-16.113
1790604242.041906,20.996,-30.762,-35.156,-14.648
1790604242.045749,5.859,-5.859,-30.762,-20.020
1790604242.049593,-20.020,3.906,-24.414,-45.898
1790604242.053437,-42.969,-2.930,-29.785,-37.109
1790604242.057280,0.977,-7.324,-22.461,3.418
1790604242.061124,22.949,1.953,-4.883,-0.977
1790604242.064967,-20.996,7.324,-7.324,-20.508
1790604242.068811,-8.789,7.324,-17.578,1.465
1790604242.072654,20.020,7.812,-19.531,6.348
1790604242.076498,23.926,7.812,-16.602,7.324
1790604242.080342,-29.297,3.906,-14.160,-14.648
1790604242.084931,-47.852,-5.859,-13.184,-32.227
1790604242.088775,-23.926,-13.672,-17.578,-16.113
1790604242.092620,8.789,-18.066,-26.367,-24.902
1790604242.096464,0.000,-18.066,-29.297,-16.113
1790604242.100308,-26.855,-24.414,-16.113,-29.785
1790604242.104152,-40.527,-27.832,-9.277,-34.668
1790604242.107997,8.789,-12.695,-13.672,14.648
1790604242.111841,23.438,-3.418,-21.484,18.555
1790604242.115685,-30.762,-8.301,-31.738,-28.809
1790604242.119530,-29.297,-5.371,-29.785,-26.367
1790604242.123374,-2.441,-1.465,-27.832,0.977
1790604242.127218,-5.371,4.395,-25.879,-12.695
1790604242.131704,-28.809,10.254,-12.695,-12.207
1790604242.135548,-26.855,13.184,-11.719,-5.859
1790604242.139393,-4.395,18.066,-26.855,-6.348
1790604242.143238,16.602,20.020,-30.762,14.648
1790604242.147083,-8.301,19.043,-9.277,9.766
1790604242.150928,-33.691,17.578,-7.812,-9.277
1790604242.154773,-8.301,16.602,-20.020,5.859
1790604242.158618,1.465,12.695,-13.184,31.250
1790604242.162463,-19.531,8.789,-10.742,-8.301
1790604242.166308,-17.090,11.719,-19.531,-36.133
1790604242.170152,-7.324,16.113,-14.160,-1.953
1790604242.173997,17.090,19.043,-7.324,31.250
1790604242.178421,11.230,25.391,-4.395,26.855
1790604242.182267,-19.531,28.320,0.977,11.230
1790604242.186112,-15.137,29.785,0.000,27.344
1790604242.189958,10.254,30.273,-4.395,31.738
1790604242.193803,8.789,22.461,-7.324,20.020
1790604242.197649,-17.090,12.207,-9.766,-6.836
1790604242.201494,-26.855,2.441,-22.949,-12.695
1790604242.205339,-6.836,-3.418,-26.855,-0.488
1790604242.209185,14.160,0.488,-16.113,0.977
1790604242.213030,-13.672,-1.953,-17.090,0.000
1790604242.216876,-27.832,-6.348,-26.367,-37.598
1790604242.220721,-37.598,-19.043,-34.180,-24.902
1790604242.225522,-50.293,-34.180,-32.227,19.531
1790604242.229368,-19.043,-31.250,-35.645,13.672
1790604242.233215,-3.418,-27.832,-30.762,-4.395
1790604242.237061,-15.137,-32.227,-16.113,-15.625
1790604242.240907,-6.836,-35.645,-19.531,8.789
1790604242.244754,-1.953,-33.203,-19.043,4.395
1790604242.248600,-30.762,-37.598,-15.137,-43.457
1790604242.252446,-53.711,-49.805,-7.324,-33.691
1790604242.256293,-13.184,-55.176,0.000,16.602
1790604242.260139,-14.648,-63.965,4.395,32.715
1790604242.263985,-58.594,-69.824,-1.953,-23.438
1790604242.267832,-75.195,-69.824,-5.859,-41.016
1790604242.272549,-53.711,-68.848,2.441,-15.625
1790604242.276396,-3.906,-56.152,5.371,3.906
1790604242.280243,-23.926,-47.363,0.488,4.883
1790604242.284090,-65.430,-43.457,-11.719,2.441
1790604242.287937,-30.273,-42.969,-17.578,0.000
1790604242.291784,19.043,-47.363,-14.648,12.207
1790604242.295631,-18.555,-56.641,-12.207,-13.184
1790604242.299479,-34.180,-55.664,-24.902,-38.574
1790604242.303326,-25.391,-42.480,-14.160,-9.766
1790604242.307173,-11.230,-37.598,-7.324,15.625
1790604242.311020,-31.250,-35.645,-18.555,30.762
1790604242.314867,-46.875,-35.156,-17.090,-5.859
1790604242.320011,-18.555,-36.621,-9.277,-22.949
1790604242.323859,-5.859,-32.227,-12.207,-0.977
1790604242.327707,1.465,-27.832,5.859,47.852
1790604242.331556,-7.324,-29.297,15.625,21.484
1790604242.335404,-14.160,-29.297,-5.371,-8.789
1790604242.339252,17.578,-32.715,-4.883,41.504
1790604242.343101,42.480,-35.645,2.441,68.848
1790604242.346949,-3.418,-33.691,12.207,53.223
1790604242.350797,-34.180,-37.109,10.742,20.020
1790604242.354645,14.160,-41.504,-4.883,8.789
1790604242.358494,28.320,-40.039,-7.812,40.527
1790604242.362342,11.719,-42.480,-5.371,24.902
1790604242.366949,-16.113,-48.340,-6.836,12.695
1790604242.370798,-24.902,-52.734,-2.930,21.484
1790604242.374647,3.418,-55.176,-2.441,28.809
1790604242.378496,21.973,-49.805,-14.648,37.598
1790604242.382345,-10.742,-46.387,-9.766,5.859
1790604242.386194,-36.621,-51.758,-3.906,-11.230
1790604242.390043,-7.324,-59.082,-6.836,12.207
1790604242.393892,22.461,-58.105,-8.301,28.809
1790604242.397741,-9.766,-65.430,-14.648,0.977
1790604242.401590,-31.738,-70.801,-13.672,-0.488
1790604242.405439,-34.668,-74.219,-8.789,29.297
1790604242.409288,16.113,-83.008,-14.160,57.617
1790604242.413835,20.996,-90.820,-27.344,14.160
1790604242.417684,-58.105,-99.609,-18.066,-30.762
1790604242.421534,-39.551,-97.168,-8.301,-7.812
1790604242.425383,23.438,-94.727,-18.066,0.977
1790604242.429233,1.465,-96.680,-10.254,7.812
1790604242.433083,-36.133,-94.727,-9.766,-0.977
1790604242.436932,-19.043,-92.773,-9.766,-0.977
1790604242.440782,21.484,-85.938,-5.859,32.715
1790604242.444631,24.902,-84.961,-21.484,59.570
1790604242.448481,-30.762,-89.355,-12.207,37.109
1790604242.452330,-36.621,-92.285,3.418,13.184
1790604242.456180,19.531,-85.938,-8.789,35.645
1790604242.460711,26.855,-78.125,-13.672,41.016
1790604242.464561,-15.137,-77.637,-8.789,3.418
1790604242.468411,-38.574,-82.520,-13.672,-10.254
1790604242.472261,-17.578,-80.078,-9.766,12.207
1790604242.476111,14.160,-71.777,-11.719,48.340
1790604242.479961,-10.254,-77.148,-17.090,33.691
1790604242.483812,-11.719,-73.242,-8.789,18.066
1790604242.487662,1.953,-68.359,-17.578,20.020
1790604242.491512,10.742,-71.777,-21.973,33.691
1790604242.495362,24.414,-62.988,-10.254,29.785
1790604242.499212,-16.602,-65.430,-11.230,1.465
1790604242.503062,-43.457,-69.824,-14.160,-13.672
1790604242.507501,11.230,-62.012,-8.789,44.922
1790604242.511351,52.734,-57.129,6.836,83.984
1790604242.515202,5.859,-51.270,-1.465,-9.766
1790604242.519053,-41.992,-44.434,-13.184,-29.297
1790604242.522903,-9.766,-39.062,-3.906,10.254
1790604242.526754,36.621,-39.062,-3.906,27.344
1790604242.530605,0.977,-38.574,1.465,17.090
1790604242.534456,-27.344,-38.086,-6.836,-6.348
1790604242.538306,-20.508,-41.504,-15.137,3.418
1790604242.542157,5.371,-37.598,-5.371,10.254
1790604242.546008,13.672,-41.992,-8.301,4.395
1790604242.549858,-42.480,-57.617,-10.742,-3.906
1790604242.554232,-31.250,-61.035,-13.672,-9.277
1790604242.558083,26.855,-55.176,-14.160,17.578
1790604242.561934,12.207,-60.059,-13.184,20.020
1790604242.565785,-19.531,-56.641,-20.020,-20.020
1790604242.569636,-16.602,-43.457,-16.113,-11.230
1790604242.573487,23.926,-37.598,-5.371,42.480
1790604242.577338,31.738,-36.133,-19.043,38.574
1790604242.581190,-4.395,-35.645,-27.832,-18.555
1790604242.585041,-16.113,-34.180,-19.043,-36.621
1790604242.588892,-12.207,-41.016,-10.742,7.324
1790604242.592743,26.367,-39.551,-11.230,24.414
1790604242.596594,-5.371,-37.109,-17.090,3.906
1790604242.601359,0.000,-37.109,-4.395,0.000
1790604242.605211,0.000,-36.621,-8.301,0.000
1790604242.609063,0.000,-37.598,-12.207,0.000
1790604242.612915,0.000,-26.855,-9.766,0.000
1790604242.616767,0.000,-24.414,-5.859,0.000
1790604242.620619,0.000,-24.414,-1.953,0.000
1790604242.624471,0.000,-20.020,-13.184,0.000
1790604242.628323,0.000,-11.719,-20.996,0.000
1790604242.632175,0.000,-12.207,-22.949,0.000
1790604242.636027,0.000,-18.555,-15.137,0.000
1790604242.639879,0.000,-18.066,-11.230,0.000
1790604242.643730,0.000,-17.578,-22.461,0.000
1790604242.648412,-15.137,-18.066,-17.090,-11.719
1790604242.652264,-30.273,-18.555,-15.137,-37.109
1790604242.656117,-13.672,-17.090,-24.902,-24.902
1790604242.659970,28.809,-16.602,-19.531,6.836
1790604242.663822,-15.137,-24.414,-17.090,-16.602
1790604242.667675,-38.086,-19.531,-14.648,-19.531
1790604242.671527,6.348,-15.625,-29.297,10.742
1790604242.675380,22.461,-20.996,-30.273,20.996
1790604242.679233,10.742,-15.137,-18.066,17.090
1790604242.683085,-31.250,-14.160,-20.508,-1.465
1790604242.686938,-20.996,-22.461,-29.785,-14.648
1790604242.690790,38.574,-18.555,-21.484,25.879
1790604242.695431,27.344,-12.207,-18.555,25.879
1790604242.699285,-11.230,-20.508,-20.996,-17.090
1790604242.703138,-3.418,-14.648,-20.020,-14.160
1790604242.706991,27.832,-2.441,-18.066,20.508
1790604242.710845,44.922,-8.789,-5.859,68.359
1790604242.714698,1.465,-10.254,3.906,32.227
1790604242.718551,-22.461,-10.254,4.883,13.184
1790604242.722404,5.371,-11.719,4.883,40.527
1790604242.726258,40.039,-11.230,6.348,50.293
1790604242.730111,12.695,-17.090,-0.488,24.414
1790604242.733964,-22.949,-14.160,-6.348,14.160
1790604242.737818,-0.488,-19.043,-9.766,16.602
1790604242.742345,35.645,-15.137,-16.602,17.578
1790604242.746199,9.277,-14.648,-7.812,10.254
1790604242.750052,-27.344,-13.672,-4.395,-4.395
1790604242.753906,-6.836,-3.418,-3.418,19.531
1790604242.757760,17.090,-3.418,-1.465,44.434
1790604242.761614,27.832,-4.883,1.465,53.711
1790604242.765468,1.953,-0.488,6.348,33.203
1790604242.769322,-2.441,0.488,15.625,26.367
1790604242.773175,41.504,-1.953,18.066,62.988
1790604242.777029,40.039,-5.371,-14.648,41.016
1790604242.780883,-6.348,-8.789,-25.879,-7.324
1790604242.784737,-20.020,-7.324,-14.648,-13.184
1790604242.789230,-8.301,-6.836,0.000,11.230
1790604242.793084,15.137,-4.395,0.000,46.875
1790604242.796939,4.883,-4.883,0.000,31.738
1790604242.800793,-24.902,-5.371,0.000,1.953
1790604242.804647,-20.020,-3.418,0.000,-0.488
1790604242.808502,9.766,-3.418,0.000,9.766
1790604242.812356,16.602,-12.695,0.000,6.348
1790604242.816211,-3.906,-18.555,0.000,4.395
1790604242.820065,-32.227,-24.902,0.000,-14.160
1790604242.823919,10.254,-26.855,0.000,1.465
1790604242.827774,50.293,-19.043,0.000,22.949
1790604242.831628,11.230,-20.020,0.000,-16.113
1790604242.836049,-45.410,-26.367,-25.879,-11.230
1790604242.839904,-25.879,-28.320,-19.043,0.977
1790604242.843759,24.902,-20.508,-19.531,10.254
1790604242.847614,3.418,-19.043,-20.996,3.906
1790604242.851469,-31.738,-21.484,-18.066,-10.742
1790604242.855323,-20.508,-5.371,-17.090,14.648
1790604242.859178,23.926,7.324,-6.348,57.129
1790604242.863033,-5.371,16.602,-1.465,51.270
1790604242.866888,-33.203,22.461,-16.602,-7.812
1790604242.870743,-12.207,20.020,-10.254,-3.418
1790604242.874598,27.832,24.414,-0.977,27.344
1790604242.878452,45.410,33.203,-4.883,22.461
1790604242.882822,2.441,26.855,0.488,11.230
1790604242.886677,-20.996,17.090,2.441,3.418
1790604242.890532,11.719,22.949,0.488,48.828
1790604242.894387,20.020,25.391,-3.906,67.871
1790604242.898242,-12.207,24.414,-6.348,21.973
1790604242.902098,-20.020,26.367,0.977,-9.277
1790604242.905953,27.344,24.414,6.836,16.113
1790604242.909808,41.016,13.672,-2.930,39.551
1790604242.913663,1.465,-1.953,-14.648,-5.371
1790604242.917519,-8.301,-2.441,-11.230,-14.160
1790604242.921374,8.789,3.418,-11.230,9.766
1790604242.925229,26.855,2.930,-10.254,31.738
1790604242.929532,3.906,-1.465,-0.977,20.508
1790604242.933387,-17.578,5.371,-8.789,0.977
1790604242.937243,-12.695,8.301,-8.789,17.578
1790604242.941098,7.324,6.836,-7.812,25.879
1790604242.944954,11.230,4.395,-14.160,15.625
1790604242.948809,-2.441,-0.488,-7.324,20.508
1790604242.952665,-11.230,-9.277,-4.883,17.090
1790604242.956521,10.254,-7.812,-14.160,16.602
1790604242.960376,46.387,-1.465,-4.883,36.133
1790604242.964232,17.090,-7.324,-6.348,9.277
1790604242.968087,-7.812,-14.648,-20.996,-6.836
1790604242.971943,-0.977,-17.090,-22.461,0.000
1790604242.976624,0.000,-17.578,0.000,5.371
1790604242.980480,0.000,-16.113,0.000,-0.488
1790604242.984337,0.000,-19.043,0.000,-24.414
1790604242.988193,0.000,-23.438,0.000,-7.812
1790604242.992049,0.000,-15.625,0.000,23.926
1790604242.995905,0.000,-13.672,0.000,10.742
1790604242.999762,0.000,-18.555,0.000,-10.742
1790604243.003618,0.000,-17.090,0.000,-4.883
1790604243.007474,0.000,-14.160,0.000,25.879
1790604243.011330,0.000,-10.254,0.000,47.363
1790604243.015187,0.000,-3.418,0.000,-9.277
1790604243.019043,0.000,2.441,0.000,-46.875
1790604243.023659,13.672,9.766,-13.184,1.953
1790604243.027515,43.945,15.137,-21.973,27.832
1790604243.031372,17.090,9.277,-20.508,13.672
1790604243.035229,-22.461,4.883,-9.766,8.789
1790604243.039086,-6.836,8.301,-2.441,9.766
1790604243.042943,36.621,8.301,5.371,32.227
1790604243.046799,16.113,5.371,-2.930,30.273
1790604243.050656,-32.227,2.930,4.883,0.977
1790604243.054513,-16.602,-0.488,18.555,21.973
1790604243.058370,21.973,-12.207,10.742,27.344
1790604243.062227,-0.977,-21.973,-5.859,-16.113
1790604243.066084,-38.574,-21.484,2.441,-21.973
1790604243.070672,0.000,-25.879,8.301,-0.977
1790604243.074529,0.000,-25.391,-0.977,33.203
1790604243.078387,0.000,-22.949,6.836,27.344
1790604243.082244,0.000,-20.996,4.883,-1.953
1790604243.086102,0.000,-20.996,-2.441,11.230
1790604243.089959,0.000,-25.391,0.977,32.227
1790604243.093816,0.000,-21.484,3.418,20.508
1790604243.097674,0.000,-17.578,0.977,5.859
1790604243.101531,0.000,-14.648,13.184,15.137
1790604243.105389,0.000,-8.789,9.277,15.137
1790604243.109246,0.000,-8.789,4.395,28.320
1790604243.113103,0.000,-9.766,13.184,35.156
1790604243.116579,-36.621,-12.695,0.000,2.930
1790604243.120436,14.648,-8.789,0.000,17.090
1790604243.124293,30.273,-4.883,0.000,39.551
1790604243.128150,-13.184,-5.371,0.000,25.879
1790604243.132008,-12.207,-5.859,0.000,6.348
1790604243.135865,26.367,-6.836,0.000,6.836
1790604243.139722,45.898,-4.395,0.000,21.973
1790604243.143579,18.555,-5.859,0.000,21.484
1790604243.147436,-20.020,-10.742,0.000,20.508
1790604243.151293,2.441,0.488,0.000,-0.977
1790604243.155150,43.945,6.836,0.000,19.043
1790604243.159007,20.508,0.000,0.000,43.945
1790604243.162480,-19.531,0.977,7.324,32.227
1790604243.166337,-6.348,4.395,0.488,16.602
1790604243.170194,33.203,0.488,1.465,9.766
1790604243.174050,27.344,0.488,5.371,39.551
1790604243.177907,-8.301,0.977,10.254,23.438
1790604243.181764,-6.836,0.977,7.324,-1.953
1790604243.185621,28.809,-3.906,5.371,40.527
1790604243.189478,42.969,1.465,19.531,72.754
1790604243.193334,-0.977,6.836,20.996,45.898
1790604243.197191,-22.949,-2.441,2.441,0.000
1790604243.201048,23.926,0.000,1.953,22.949
1790604243.204905,43.945,0.977,10.742,52.246
1790604243.209338,34.180,-11.230,-9.766,32.715
1790604243.213195,-6.836,-12.695,-6.348,12.695
1790604243.217052,-35.645,-12.695,6.348,20.508
1790604243.220910,-3.418,-11.719,1.465,29.785
1790604243.224767,33.691,-6.348,0.000,48.828
1790604243.228624,-0.488,-11.230,4.395,45.410
1790604243.232481,-15.625,-12.207,12.207,16.602
1790604243.236339,4.883,-4.883,0.488,11.719
1790604243.240196,20.020,-4.883,-15.625,37.109
1790604243.244053,-18.555,-5.859,-10.742,26.367
1790604243.247910,-21.484,0.488,-6.836,20.508
1790604243.251768,7.324,4.395,-16.602,29.785
1790604243.256179,4.883,-0.977,-9.766,24.902
1790604243.260037,35.156,2.441,-4.395,39.062
1790604243.263894,8.301,2.930,-13.184,9.277
1790604243.267752,-2.930,-0.488,-10.742,-1.465
1790604243.271610,28.809,7.812,-13.672,33.203
1790604243.275467,43.457,7.812,-14.648,50.781
1790604243.279325,27.832,2.930,1.953,65.430
1790604243.283183,-13.672,9.277,3.906,37.598
1790604243.287040,-7.324,10.254,-15.137,3.418
1790604243.290898,32.227,10.742,-19.531,8.301
1790604243.294756,-1.953,12.695,-22.461,-10.254
1790604243.298613,-46.875,8.789,-26.855,-43.945
1790604243.302953,-13.184,9.766,-20.508,-10.742
1790604243.306812,28.320,13.672,-20.996,41.504
1790604243.310669,11.719,7.324,-30.273,20.508
1790604243.314528,-23.438,8.789,-17.090,-12.207
1790604243.318386,-15.625,22.461,-19.043,-8.301
1790604243.322243,22.461,31.250,-22.461,29.297
1790604243.326102,32.715,28.320,-9.766,37.598
1790604243.329960,-10.742,20.020,-21.973,11.230
1790604243.333818,-38.574,13.184,-23.438,18.066
1790604243.337676,-12.207,10.742,-15.625,32.227
1790604243.341534,27.832,16.113,-11.719,22.949
1790604243.345392,5.859,15.137,-14.160,5.371
1790604243.350093,0.000,14.160,-11.719,3.906
1790604243.353952,0.000,27.344,-8.301,19.043
1790604243.357811,0.000,31.250,-4.883,34.668
1790604243.361669,0.000,30.762,-11.719,23.926
1790604243.365528,0.000,35.645,-8.789,28.809
1790604243.369386,0.000,24.414,6.836,44.434
1790604243.373245,0.000,17.578,-9.766,42.969
1790604243.377104,0.000,20.996,-23.926,37.109
1790604243.380962,0.000,27.344,-0.488,32.715
1790604243.384821,0.000,35.156,14.648,60.547
1790604243.388680,0.000,34.668,6.348,27.832
1790604243.392538,0.000,34.668,-0.977,11.719
1790604243.396196,-14.160,34.180,8.301,19.043
1790604243.400054,26.855,35.156,2.930,18.555
1790604243.403913,44.922,38.086,-2.930,54.199
1790604243.407771,27.344,39.062,1.953,61.523
1790604243.411629,4.395,34.180,2.930,52.246
1790604243.415488,-1.953,26.367,10.742,40.039
1790604243.419347,21.484,21.973,5.859,47.852
1790604243.423205,8.789,19.043,-13.184,49.805
1790604243.427063,-17.578,18.066,-1.953,44.922
1790604243.430922,3.418,18.066,11.230,25.879
1790604243.434780,30.273,20.996,-0.977,13.184
1790604243.438639,39.062,26.367,10.742,52.734
1790604243.443216,26.367,22.949,23.926,38.086
1790604243.447075,-6.348,24.902,12.207,19.531
1790604243.450934,-7.812,30.273,11.230,40.527
1790604243.454793,42.480,35.156,22.949,31.250
1790604243.458652,57.129,39.062,16.113,38.574
1790604243.462511,-1.465,29.785,12.207,37.109
1790604243.466370,-23.438,10.254,12.207,33.691
1790604243.470229,0.488,0.977,12.695,26.855
1790604243.474088,40.527,7.324,16.113,35.645
1790604243.477947,29.297,7.812,12.695,39.062
1790604243.481806,-1.953,5.859,13.184,22.949
1790604243.485665,6.836,0.488,9.766,39.551
1790604243.490213,15.625,-0.977,1.953,64.453
1790604243.494073,3.418,3.906,-1.465,54.688
1790604243.497932,-14.648,-2.441,-3.418,35.156
1790604243.501792,0.977,-4.883,13.672,16.113
1790604243.505651,42.480,-3.906,15.137,36.133
1790604243.509511,43.945,-1.465,12.695,51.270
1790604243.513370,14.648,-2.930,15.137,30.273
1790604243.517230,12.207,1.953,15.137,35.645
1790604243.521089,51.270,6.348,26.367,65.430
1790604243.524949,51.270,-2.441,10.254,74.707
1790604243.528808,-3.418,-0.977,2.930,40.039
1790604243.532668,17.090,6.836,12.695,19.043
1790604243.537160,0.000,3.906,14.648,39.062
1790604243.541020,0.000,1.953,7.812,48.340
1790604243.544880,0.000,-1.953,12.695,15.625
1790604243.548740,0.000,-8.789,12.695,-4.395
1790604243.552600,0.000,-3.906,3.418,22.461
1790604243.556460,0.000,-6.348,-0.488,63.477
1790604243.560320,0.000,-6.836,0.977,63.477
1790604243.564180,0.000,-0.977,7.812,44.922
1790604243.568040,0.000,-0.488,-4.395,35.645
1790604243.571900,0.000,0.977,-12.695,42.480
1790604243.575760,0.000,2.441,-8.789,60.059
1790604243.579619,0.000,11.230,-9.766,41.504
1790604243.583179,45.898,18.066,-4.395,21.484
1790604243.587039,46.387,8.789,7.324,28.809
1790604243.590899,19.043,12.695,3.418,26.855
1790604243.594759,-7.812,21.973,1.953,2.930
1790604243.598619,13.184,16.113,5.859,9.277
1790604243.602478,36.133,14.648,2.441,29.785
1790604243.606338,33.691,17.090,7.324,51.758
1790604243.610198,13.184,14.648,2.930,45.410
1790604243.614057,1.953,4.395,-7.324,-0.977
1790604243.617917,18.066,3.418,-11.719,2.441
1790604243.621777,39.062,6.348,-4.883,41.992
1790604243.625637,26.855,0.977,-3.418,39.551
1790604243.629998,-33.203,-3.906,-11.719,1.465
1790604243.633858,-24.902,-1.465,-0.977,-5.371
1790604243.637718,18.066,7.324,-1.953,12.207
1790604243.641578,19.531,2.930,-10.742,24.414
1790604243.645438,-18.555,0.000,0.000,-6.348
1790604243.649298,-27.344,0.977,5.859,0.000
1790604243.653158,-8.301,-4.883,2.441,14.648
1790604243.657018,19.531,-10.742,-10.742,15.625
1790604243.660879,-6.348,-3.906,-17.578,10.254
1790604243.664739,-35.645,9.766,-14.648,-13.672
1790604243.668599,-22.949,9.277,-14.648,2.930
1790604243.672459,-17.090,3.906,-18.066,23.438
1790604243.676809,-16.113,2.441,-20.996,-11.719
1790604243.680669,-16.602,15.625,-18.555,-42.480
1790604243.684529,-26.855,27.344,-10.254,-22.949
1790604243.688390,5.371,30.762,-10.254,7.324
1790604243.692250,6.836,28.320,-20.020,12.207
1790604243.696111,-18.066,24.902,-13.184,6.348
1790604243.699971,-12.207,31.738,-18.555,-1.465
1790604243.703831,-4.395,30.762,-27.832,2.441
1790604243.707692,0.000,29.785,-19.531,32.715
1790604243.711552,-19.531,34.180,-16.113,15.137
1790604243.715413,-38.574,27.344,-15.137,-36.621
1790604243.719273,-18.555,19.531,-14.160,-8.789
1790604243.723880,8.789,26.367,-1.465,39.551
1790604243.727741,-11.230,27.832,-1.953,17.578
1790604243.731602,-12.695,34.180,-10.254,-0.488
1790604243.735463,1.465,40.527,-8.301,15.625
1790604243.739324,26.855,36.621,-7.324,35.156
1790604243.743185,19.531,40.039,-12.207,23.926
1790604243.747046,-18.066,34.180,-16.602,0.488
1790604243.750907,-24.902,24.414,-15.625,0.977
1790604243.754767,18.066,30.273,-13.672,20.508
1790604243.758628,13.672,23.926,-7.324,12.695
1790604243.762489,-30.762,12.695,-10.742,-13.672
1790604243.766350,-21.484,17.578,-10.742,-14.160
1790604243.770922,18.555,18.555,-6.836,5.371
1790604243.774783,22.461,15.625,-10.254,21.973
1790604243.778645,-26.367,12.695,-12.695,-1.465
1790604243.782506,-44.434,9.766,-15.137,-41.992
1790604243.786367,-12.695,9.277,-15.137,-14.160
1790604243.790229,17.090,16.602,-13.672,31.738
1790604243.794090,6.836,17.578,-17.090,9.277
1790604243.797951,-24.414,10.742,-17.090,-10.254
1790604243.801813,-18.066,18.555,-9.766,2.930
1790604243.805674,14.160,20.508,-10.742,18.555
1790604243.809536,-9.766,14.160,-15.625,-3.906
1790604243.813397,-32.227,15.625,-15.625,-22.949
1790604243.817888,-20.508,15.137,-20.996,-7.324
1790604243.821750,20.020,14.160,-13.184,24.902
1790604243.825612,24.414,7.812,-5.371,25.879
1790604243.829473,-15.137,-0.488,-5.371,-9.277
1790604243.833335,-15.625,4.395,-8.789,3.906
1790604243.837197,0.488,13.672,-12.207,14.160
1790604243.841059,24.902,8.789,-17.090,-4.883
1790604243.844921,2.930,1.465,-9.766,-20.020
1790604243.848783,-28.809,6.348,2.930,-6.348
1790604243.852644,-9.277,-1.953,-7.324,3.906
1790604243.856506,33.691,-9.277,-20.996,-3.418
1790604243.860368,22.949,-9.277,-19.531,5.371
1790604243.864839,-17.578,-17.090,-21.484,-2.441
1790604243.868701,5.371,-13.184,-17.578,-16.113
1790604243.872564,27.344,-4.883,-9.766,12.207
1790604243.876426,17.090,-6.348,2.930,35.156
1790604243.880288,-12.207,-12.207,6.348,17.090
1790604243.884150,-13.184,-16.602,-17.578,-6.836
1790604243.888013,8.789,-11.230,-19.043,9.766
1790604243.891875,31.738,-3.906,-2.441,35.645
1790604243.895737,3.418,-15.625,-4.883,7.324
1790604243.899599,-36.621,-20.996,-15.137,-19.531
1790604243.903461,6.348,-4.395,-13.184,-7.324
1790604243.907324,34.180,-5.371,0.977,36.133
1790604243.911718,-1.465,-12.207,2.441,46.875
1790604243.915581,-21.973,-6.348,-0.977,0.977
1790604243.919443,16.113,-0.977,-13.672,-9.277
1790604243.923306,36.133,-1.465,-19.531,9.766
1790604243.927169,0.000,-11.230,-6.348,5.371
1790604243.931031,-5.371,-11.719,-12.207,10.742
1790604243.934894,16.113,-3.906,-7.812,7.812
1790604243.938756,44.434,2.441,2.930,42.480
1790604243.942619,34.180,-1.953,-5.371,33.203
1790604243.946481,-3.906,-7.324,-12.695,-31.250
1790604243.950344,-12.695,-12.207,-2.441,-10.254
1790604243.954207,19.531,-15.625,-9.766,21.973
1790604243.958563,31.738,-11.719,-12.207,19.531
1790604243.962426,-19.531,-12.207,0.000,-0.977
1790604243.966289,-26.367,-6.348,-1.953,-6.348
1790604243.970151,6.348,-4.395,-10.742,17.090
1790604243.974015,19.043,-8.301,-1.953,11.230
1790604243.977877,-4.395,-0.488,-6.348,1.953
1790604243.981740,-34.180,1.465,-9.766,15.625
1790604243.985603,-6.836,-3.418,3.418,24.902
1790604243.989466,49.805,-6.348,-10.254,24.414
1790604243.993329,24.902,-3.418,-16.113,5.371
1790604243.997192,-20.508,3.418,-16.113,-24.902
1790604244.001055,-36.133,-0.488,-13.672,-16.113
1790604244.005373,-13.672,-5.371,-6.348,24.414
1790604244.009236,27.832,-0.977,-0.488,43.457
1790604244.013099,3.418,-0.488,11.719,17.090
1790604244.016962,-9.277,2.930,3.906,7.812
1790604244.020825,24.902,-2.930,0.000,44.434
1790604244.024689,42.969,-7.324,10.742,43.945
1790604244.028552,18.555,0.000,9.277,31.738
1790604244.032415,7.812,1.953,6.348,35.645
1790604244.036278,24.414,3.906,0.000,42.480
1790604244.040142,32.715,10.254,4.395,40.039
1790604244.044005,-1.465,13.672,1.953,4.883
1790604244.047868,-23.438,20.020,-6.836,-4.395
1790604244.052168,-5.371,23.438,-2.930,1.953
1790604244.056032,39.062,18.555,6.348,20.508
1790604244.059895,27.344,16.113,5.371,26.367
1790604244.063759,-2.930,17.090,-2.930,1.953
1790604244.067622,-6.348,19.531,0.488,14.648
1790604244.071486,16.113,20.020,12.695,45.410
1790604244.075349,30.762,17.090,15.137,31.250
1790604244.079212,-19.043,18.066,4.883,0.977
1790604244.083076,-24.902,21.973,-7.324,9.766
1790604244.086940,41.016,22.461,-0.488,19.531
1790604244.090803,51.270,23.438,6.348,29.297
1790604244.094666,5.859,19.531,1.465,2.930
1790604244.099258,0.000,17.090,1.953,14.648
1790604244.103122,0.000,20.996,9.277,46.875
1790604244.106986,0.000,15.625,11.230,46.387
1790604244.110850,0.000,12.207,8.789,43.945
1790604244.114714,0.000,20.996,0.977,37.109
1790604244.118578,0.000,14.648,-8.789,43.945
1790604244.122442,0.000,7.324,-9.766,56.152
1790604244.126306,0.000,7.324,0.977,43.457
1790604244.130169,0.000,3.906,7.324,26.855
1790604244.134033,0.000,4.395,-6.348,27.344
1790604244.137897,0.000,-0.977,-4.883,41.992
1790604244.141761,0.000,-6.836,-0.977,46.875
1790604244.146303,3.906,-7.812,-1.465,27.344
1790604244.150168,-11.719,-6.836,-2.930,27.832
1790604244.154032,32.227,-7.812,0.000,39.551
1790604244.157897,57.617,-10.254,0.977,62.012
1790604244.161761,23.926,-6.836,7.324,44.922
1790604244.165625,0.488,-9.277,14.648,47.363
1790604244.169490,20.508,-12.207,0.977,51.270
1790604244.173354,39.551,-13.184,0.488,46.875
1790604244.177218,34.668,-16.602,6.836,36.621
1790604244.181083,4.883,-17.578,2.930,31.738
1790604244.184947,-16.113,-24.414,-11.230,29.785
1790604244.188812,29.297,-28.809,0.488,53.223
1790604244.193328,28.320,-26.855,14.160,59.082
1790604244.197193,-7.324,-20.996,6.348,28.320
1790604244.201057,-13.672,-22.949,-2.930,14.160
1790604244.204922,10.254,-26.855,-7.324,30.762
1790604244.208787,34.180,-22.461,-10.742,52.246
1790604244.212652,-0.488,-27.832,-19.043,9.277
1790604244.216517,-20.508,-37.109,-3.418,-8.301
1790604244.220381,4.395,-26.855,10.254,11.719
1790604244.224246,25.879,-8.301,9.277,37.109
1790604244.228111,16.113,0.000,1.953,33.203
1790604244.231976,-6.348,1.953,-6.836,17.090
1790604244.235841,-0.488,2.441,3.418,23.926
1790604244.240300,21.484,0.977,13.672,40.527
1790604244.244165,12.207,-5.371,-9.766,26.855
1790604244.248030,-17.090,-7.812,-16.113,13.184
1790604244.251896,-17.578,-11.719,5.371,17.090
1790604244.255761,18.066,-15.625,-2.441,27.344
1790604244.259626,28.809,-8.789,-5.371,54.688
1790604244.263491,-12.695,-13.672,-6.348,1.953
1790604244.267356,-14.648,-13.184,-9.277,-14.160
1790604244.271221,23.438,-1.953,-5.859,30.762
1790604244.275087,27.832,-4.395,-6.348,15.137
1790604244.278952,11.230,-4.395,-5.859,-8.301
1790604244.282817,5.859,-3.906,-1.465,-1.465
1790604244.287530,25.391,-7.812,6.836,25.391
1790604244.291395,20.020,-10.742,4.883,35.645
1790604244.295261,-4.883,-6.348,0.000,21.484
1790604244.299127,-0.977,-6.836,1.953,6.836
1790604244.302992,21.484,-6.348,-8.789,8.301
1790604244.306858,35.156,-2.441,-8.789,9.766
1790604244.310724,24.414,-9.277,6.348,11.719
1790604244.314590,-3.906,-17.578,-2.930,9.277
1790604244.318455,-28.809,-20.508,-10.742,0.488
1790604244.322321,0.488,-13.184,-5.859,9.277
1790604244.326187,36.621,-11.719,-8.789,13.184
1790604244.330052,18.555,-15.137,-19.531,5.371
1790604244.334358,10.254,-20.508,-7.324,15.137
1790604244.338224,27.344,-28.320,8.301,16.602
1790604244.342091,40.039,-35.156,7.812,3.418
1790604244.345957,-27.832,-45.898,-1.465,-6.348
1790604244.349823,-73.730,-52.246,3.418,-43.945
1790604244.353688,-50.781,-52.734,-0.977,-52.246
1790604244.357554,-46.875,-53.223,-10.254,-30.273
1790604244.361420,-67.871,-52.246,-9.277,-45.898
1790604244.365286,-116.699,-57.129,-18.555,-76.660
1790604244.369152,-125.488,-71.777,-15.625,-83.496
1790604244.373018,-77.148,-73.242,-0.488,-56.641
1790604244.376884,-74.707,-76.660,16.113,-46.875
1790604244.381202,-111.328,-85.938,16.602,-77.148
1790604244.385069,-133.301,-86.426,18.555,-67.871
1790604244.388935,-113.770,-91.309,32.227,-41.992
1790604244.392801,-87.402,-96.191,12.695,-25.879
1790604244.396667,-109.375,-96.680,-8.301,-47.363
1790604244.400534,-122.070,-101.074,26.367,-78.613
1790604244.404400,-85.938,-107.422,60.547,-59.082
1790604244.408266,-80.566,-104.492,51.758,-26.367
1790604244.412133,-106.445,-114.258,38.574,-41.016
1790604244.415999,-97.168,-116.211,39.062,-41.992
1790604244.419865,-64.453,-107.910,43.945,-24.902
1790604244.423731,-39.062,-117.676,41.504,-6.836
1790604244.428010,-66.406,-122.559,36.133,-17.090
1790604244.431876,-74.219,-117.676,26.367,-41.504
1790604244.435743,-43.457,-118.164,25.879,0.000
1790604244.439609,-18.555,-116.211,19.531,23.438
1790604244.443476,-20.508,-107.422,10.742,3.906
1790604244.447342,-39.551,-99.609,9.277,0.977
1790604244.451209,-38.574,-92.285,3.906,15.625
1790604244.455075,-16.113,-94.238,12.695,20.020
1790604244.458942,10.742,-90.820,20.996,43.945
1790604244.462808,-10.742,-81.055,17.578,29.785
1790604244.466675,-19.043,-80.566,9.277,9.766
1790604244.470541,9.766,-83.008,5.859,39.551
1790604244.475099,34.668,-79.102,5.371,66.406
1790604244.478966,21.484,-71.289,-5.371,41.016
1790604244.482833,-22.461,-64.941,-7.324,1.953
1790604244.486700,-17.578,-67.383,-9.766,30.273
1790604244.490566,46.875,-67.871,-1.953,66.895
1790604244.494433,23.926,-55.664,6.348,57.129
1790604244.498300,-16.602,-55.664,2.441,22.949
1790604244.502167,-1.953,-61.035,-5.371,-0.488
1790604244.506034,34.180,-54.688,-11.719,23.438
1790604244.509901,30.762,-54.199,-3.418,42.480
1790604244.513768,-18.555,-59.570,-4.395,16.113
1790604244.517635,-20.996,-55.176,-19.531,0.488
1790604244.522110,15.625,-50.781,-9.766,35.156
1790604244.525977,34.668,-52.246,-2.930,56.641
1790604244.529845,-2.930,-48.828,-18.066,11.230
1790604244.533712,-19.531,-45.410,-22.949,-7.324
1790604244.537579,18.066,-48.828,-18.066,36.621
1790604244.541446,43.457,-53.223,-18.066,41.504
1790604244.545314,0.000,-59.570,-19.531,4.395
1790604244.549181,-35.156,-57.617,-19.043,-13.184
1790604244.553048,12.207,-49.805,-12.695,-1.465
1790604244.556915,28.320,-49.316,-9.766,27.344
1790604244.560783,-14.160,-45.898,-17.090,36.133
1790604244.564650,-32.715,-49.316,-18.066,-0.488
1790604244.569111,-14.160,-51.270,-13.672,-18.555
1790604244.572979,20.020,-41.504,-20.508,30.762
1790604244.576846,16.602,-47.363,-24.902,30.273
1790604244.580714,0.977,-48.828,-21.484,11.719
1790604244.584582,-13.184,-49.805,-27.344,-0.977
1790604244.588449,-16.602,-56.152,-25.391,-25.879
1790604244.592317,-1.465,-62.012,-17.578,-21.484
1790604244.596184,-9.277,-58.105,-25.879,-17.578
1790604244.600052,-37.598,-51.758,-31.250,-10.742
1790604244.603920,-32.715,-59.082,-33.203,-12.695
1790604244.607787,-2.441,-53.711,-32.715,7.812
1790604244.611655,-19.531,-41.992,-22.461,-2.441
1790604244.616084,0.000,-34.668,-28.809,-34.180
1790604244.619952,0.000,-33.203,-36.133,-35.645
1790604244.623820,0.000,-36.133,-24.902,-4.395
1790604244.627688,0.000,-34.180,-21.484,10.254
1790604244.631556,0.000,-25.879,-27.344,-28.320
1790604244.635424,0.000,-24.414,-19.531,-24.902
1790604244.639292,0.000,-20.020,-17.578,24.414
1790604244.643160,0.000,-8.301,-18.555,22.949
1790604244.647027,0.000,-9.277,-9.766,2.930
1790604244.650896,0.000,-16.602,-17.578,-14.160
1790604244.654763,0.000,-17.090,-14.160,10.254
1790604244.658631,0.000,-15.137,-12.207,42.969
1790604244.663006,-16.602,-20.996,-16.113,-10.254
1790604244.666874,-44.922,-29.297,-20.996,-12.695
1790604244.670742,3.418,-27.344,-9.277,24.902
1790604244.674611,22.461,-31.738,-3.906,20.508
1790604244.678479,1.953,-33.203,-14.648,18.066
1790604244.682347,-21.484,-23.926,-7.324,10.254
1790604244.686215,-22.461,-20.508,-4.395,9.766
1790604244.690084,28.320,-20.996,-13.184,46.875
1790604244.693952,25.391,-23.926,-16.113,38.086
1790604244.697820,-26.855,-22.461,-20.508,-4.395
1790604244.701688,-11.719,-8.301,-20.996,2.441
1790604244.705557,36.621,0.000,-7.812,26.367
1790604244.709903,26.855,-1.465,9.766,37.598
1790604244.713771,-4.883,-4.883,2.441,17.090
1790604244.717640,-16.113,-10.742,-3.418,-6.348
1790604244.721508,-4.395,-7.812,-1.465,10.254
1790604244.725377,23.438,-3.906,-9.766,28.809
1790604244.729245,-8.789,0.488,-14.648,-1.953
1790604244.733114,-22.461,8.301,-15.625,3.418
1790604244.736983,10.742,19.531,-21.484,36.133
1790604244.740851,16.113,32.715,-25.391,21.973
1790604244.744720,-2.441,38.086,-25.879,5.859
1790604244.748588,-12.207,43.457,-18.555,-13.672
1790604244.752457,-13.672,43.457,-9.766,-15.137
1790604244.756707,1.953,34.180,-15.137,-1.953
1790604244.760576,1.953,37.109,-11.230,0.000
1790604244.764445,-39.062,37.598,-12.207,-30.273
1790604244.768313,-29.297,37.598,-28.809,-31.250
1790604244.772182,-10.742,39.551,-24.414,-8.789
1790604244.776051,-9.766,40.039,-13.184,-2.441
1790604244.779920,-23.438,48.828,-13.672,-0.977
1790604244.783788,-27.344,60.547,-27.344,-18.066
1790604244.787657,4.395,71.777,-33.203,-14.160
1790604244.791526,32.227,76.660,-14.648,22.949
1790604244.795395,0.000,79.102,-21.484,3.418
1790604244.799263,-40.527,76.660,-28.320,-19.043
1790604244.803475,-24.414,73.242,-28.320,0.000
1790604244.807344,16.602,78.125,-33.203,19.531
1790604244.811213,23.926,80.566,-20.020,30.273
1790604244.815082,-11.719,78.125,-16.602,9.277
1790604244.818950,-15.625,72.754,-22.461,-27.344
1790604244.822819,19.043,74.219,-5.859,2.930
1790604244.826689,26.855,78.613,-13.672,34.180
1790604244.830557,-29.785,68.848,-35.645,0.977
1790604244.834426,-42.480,63.965,-21.973,-12.695
1790604244.838295,10.254,67.383,-7.812,12.695
1790604244.842164,20.996,65.430,-5.371,42.480
1790604244.846033,-3.906,62.012,-16.602,3.906
1790604244.850516,-18.066,63.965,-27.344,-12.695
1790604244.854385,2.930,68.848,-17.578,33.203
1790604244.858254,35.645,70.312,0.977,47.852
1790604244.862124,11.230,63.477,-7.812,8.301
1790604244.865993,-20.996,59.570,-3.906,-35.156
1790604244.869863,-10.742,59.570,4.883,3.418
1790604244.873732,12.207,58.594,-4.395,69.824
1790604244.877601,6.348,56.152,6.836,49.316
1790604244.881470,-18.555,54.199,-6.836,-5.371
1790604244.885340,-16.113,48.340,-13.184,-1.465
1790604244.889209,5.371,38.086,-1.465,30.762
1790604244.893078,7.812,42.969,0.000,22.949
1790604244.897548,-15.137,47.852,7.324,2.930
1790604244.901417,-38.086,38.574,4.883,2.930
1790604244.905287,-20.020,31.250,1.465,18.066
1790604244.909157,14.160,32.227,-2.930,26.367
1790604244.913027,4.883,31.250,-0.977,2.441
1790604244.916896,-14.160,30.273,8.301,-19.043
1790604244.920766,-32.715,30.762,12.207,9.277
1790604244.924635,-6.348,27.832,-0.488,18.066
1790604244.928505,14.160,27.344,-9.277,15.137
1790604244.932375,-19.043,25.879,-8.789,3.906
1790604244.936244,-19.531,19.531,-11.719,-19.043
1790604244.940114,5.371,11.719,-1.465,14.648
1790604244.944531,-6.836,3.906,0.000,3.906
1790604244.948401,-22.461,1.953,0.000,-15.625
1790604244.952271,-19.043,-5.859,0.000,-0.977
1790604244.956141,-14.160,-15.625,0.000,20.020
1790604244.960011,-3.906,-20.996,0.000,10.742
1790604244.963881,-28.809,-19.531,0.000,-35.156
1790604244.967751,-39.062,-16.113,0.000,-41.992
1790604244.971621,-25.879,-20.020,0.000,11.230
1790604244.975491,-5.371,-18.066,0.000,38.086
1790604244.979361,-28.320,-20.508,0.000,-5.859
1790604244.983231,-51.758,-19.531,0.000,-39.062
1790604244.987101,-20.020,-11.230,0.000,-25.879
1790604244.991496,0.000,-18.555,-1.953,22.949
1790604244.995367,0.000,-25.391,-18.066,3.418
1790604244.999237,0.000,-22.949,-16.602,-39.551
1790604245.003107,0.000,-19.043,-3.906,-11.719
1790604245.006977,0.000,-16.602,-7.812,7.812
1790604245.010848,0.000,-16.602,-7.324,-18.066
1790604245.014718,0.000,-13.184,-15.625,-40.039
1790604245.018588,0.000,-8.301,-11.719,-29.785
1790604245.022458,0.000,-6.348,1.465,-3.906
1790604245.026329,0.000,-4.395,-8.301,1.953
1790604245.030199,0.000,-1.953,-9.766,-8.789
1790604245.034069,0.000,1.953,0.977,-4.395
1790604245.037624,6.836,14.160,7.812,22.949
1790604245.041495,-25.391,18.066,9.766,20.020
1790604245.045365,-54.688,18.066,19.043,-18.066
1790604245.049235,-21.484,23.438,14.160,-34.180
1790604245.053105,-1.953,25.879,5.859,-15.137
1790604245.056975,-16.602,30.762,21.973,36.133
1790604245.060845,-26.855,32.715,24.902,40.039
1790604245.064715,-38.574,28.320,10.742,7.324
1790604245.068585,-14.160,23.926,6.836,13.672
1790604245.072455,3.418,30.273,9.766,45.410
1790604245.076325,-29.785,29.785,9.766,58.594
1790604245.080195,-15.625,23.926,8.301,34.668
1790604245.084792,42.969,19.531,13.184,17.578
1790604245.088663,72.266,15.625,12.695,41.992
1790604245.092533,66.406,11.230,14.648,66.406
1790604245.096404,39.551,8.301,13.672,50.293
1790604245.100274,43.457,9.277,18.066,60.059
1790604245.104145,72.266,17.578,26.367,82.520
1790604245.108015,79.102,20.996,20.508,81.543
1790604245.111886,63.965,21.973,21.484,55.664
1790604245.115756,40.527,23.438,22.949,27.344
1790604245.119627,51.758,25.391,27.344,58.105
1790604245.123497,83.984,22.461,30.273,83.008
1790604245.127367,60.547,16.113,35.156,53.711
1790604245.131620,18.066,13.672,27.344,13.672
1790604245.135490,29.297,9.766,30.273,41.992
1790604245.139361,69.336,4.883,32.227,88.867
1790604245.143232,70.312,0.000,22.461,80.078
1790604245.147102,44.434,2.441,17.578,55.176
1790604245.150973,47.852,8.789,18.066,46.875
1790604245.154844,54.688,0.977,23.438,70.801
1790604245.158715,75.684,-7.324,15.625,83.496
1790604245.162585,60.547,-4.395,13.672,50.781
1790604245.166456,30.273,1.465,19.043,35.156
1790604245.170326,53.223,8.301,30.762,66.406
1790604245.174197,84.473,3.418,22.461,70.801
1790604245.178433,65.918,1.465,25.879,47.852
1790604245.182304,42.969,6.836,29.785,62.012
1790604245.186175,59.082,4.883,28.809,81.055
1790604245.190046,68.359,-1.953,19.043,74.707
1790604245.193917,54.199,0.977,-0.977,62.988
1790604245.197788,39.551,-1.953,12.207,46.387
1790604245.201658,40.039,-3.906,15.137,38.086
1790604245.205529,41.992,0.977,-1.465,40.039
1790604245.209400,55.176,2.930,3.906,51.758
1790604245.213271,48.828,7.812,11.230,60.547
1790604245.217142,21.484,3.906,6.836,46.387
1790604245.221013,37.598,-7.324,-2.930,17.578
1790604245.225471,56.152,-1.953,-16.602,25.391
1790604245.229343,7.324,1.953,-14.648,27.832
1790604245.233214,-15.625,-4.883,-1.953,13.184
1790604245.237085,1.953,-7.812,-5.859,5.371
1790604245.240956,27.344,-7.324,-13.672,18.066
1790604245.244828,37.598,-0.977,-7.324,27.832
1790604245.248699,8.301,3.906,0.488,-6.348
1790604245.252570,4.395,1.465,-18.066,-11.719
1790604245.256441,40.527,-1.465,-17.578,37.598
1790604245.260312,30.273,-1.465,-6.836,52.734
1790604245.264184,1.953,-1.465,-17.090,22.949
1790604245.268055,-1.953,0.000,-17.090,10.742
1790604245.272470,0.000,2.930,-10.254,47.852
1790604245.276341,0.000,5.859,-10.254,51.270
1790604245.280213,0.000,7.324,-10.254,-1.953
1790604245.284084,0.000,5.859,-14.160,-20.996
1790604245.287956,0.000,12.207,-18.555,9.766
1790604245.291827,0.000,20.508,-8.789,50.781
1790604245.295699,0.000,16.602,-9.766,20.020
1790604245.299570,0.000,16.602,-12.207,-8.789
1790604245.303442,0.000,22.461,2.930,20.020
1790604245.307313,0.000,17.578,-0.488,47.363
1790604245.311185,0.000,12.695,-17.578,25.391
1790604245.315056,0.000,8.301,-14.648,-3.418
1790604245.319429,-12.695,6.836,-13.184,7.812
1790604245.323300,1.953,7.812,-7.324,41.504
1790604245.327172,17.578,11.230,-8.301,29.785
1790604245.331044,1.953,10.742,-6.836,-7.324
1790604245.334916,-6.836,6.348,-11.230,-11.230
1790604245.338787,11.719,5.371,-20.020,34.668
1790604245.342659,20.508,4.395,-9.277,49.316
1790604245.346531,-21.973,-1.953,-2.441,8.789
1790604245.350403,-37.109,-3.906,-1.953,11.719
1790604245.354275,-7.324,-0.977,-4.395,23.926
1790604245.358146,23.438,-0.488,-8.789,23.926
1790604245.362018,7.324,-3.418,0.000,14.648
1790604245.366359,-13.672,-1.465,-6.348,-8.789
1790604245.370231,-3.906,5.859,-17.578,-6.348
1790604245.374103,25.879,4.883,-12.207,28.320
1790604245.377975,18.066,-0.488,-3.906,29.297
1790604245.381847,-28.809,-5.859,1.953,-7.324
1790604245.385719,-31.738,-10.254,6.348,-25.879
1790604245.389591,-0.488,-12.695,-2.441,-13.184
1790604245.393463,20.996,-11.719,-2.441,14.648
1790604245.397335,-8.789,-13.184,-6.348,-1.465
1790604245.401207,-39.551,-26.367,-17.090,-29.785
1790604245.405079,-17.090,-27.344,-8.301,12.695
1790604245.408951,22.949,-14.160,-5.371,48.828
1790604245.413265,0.000,-8.301,-9.277,17.090
1790604245.417138,0.000,-11.719,-1.953,-15.137
1790604245.421010,0.000,-11.719,8.301,-8.789
1790604245.424882,0.000,-9.277,3.418,28.809
1790604245.428754,0.000,-15.137,-12.207,22.461
1790604245.432626,0.000,-17.090,-18.066,-17.090
1790604245.436499,0.000,-13.184,-13.184,-14.648
1790604245.440371,0.000,-10.742,1.465,23.438
1790604245.444243,0.000,-14.160,-13.672,16.113
1790604245.448115,0.000,-23.438,-32.715,-20.996
1790604245.451988,0.000,-26.855,-18.066,-21.973
1790604245.455860,0.000,-26.855,-8.301,11.719
1790604245.459412,-6.348,-15.137,-7.812,25.879
1790604245.463284,-40.039,-6.836,-6.348,-7.324
1790604245.467156,-13.184,-6.348,-4.395,-7.324
1790604245.471028,4.395,-8.789,-3.906,21.484
1790604245.474900,-13.672,-10.254,-5.859,36.133
1790604245.478772,-28.320,0.977,-12.695,5.371
1790604245.482645,-4.883,1.953,2.441,-14.160
1790604245.486516,27.344,-11.230,14.648,28.320
1790604245.490389,9.277,-14.648,-3.906,47.363
1790604245.494261,-20.996,-1.465,-6.348,26.855
1790604245.498133,-22.461,-3.906,3.418,-10.742
1790604245.502005,2.930,-8.301,-12.695,-23.438
1790604245.506282,30.273,-0.488,-20.508,25.391
1790604245.510155,14.648,-2.930,1.465,24.414
1790604245.514027,-15.137,-7.324,16.113,-31.250
1790604245.517899,-19.043,-18.555,20.508,-39.062
1790604245.521771,3.906,-22.949,-1.465,25.391
1790604245.525644,20.020,-20.020,-23.438,55.176
1790604245.529516,0.977,-25.879,-23.438,4.395
1790604245.533388,14.648,-20.996,-22.949,4.883
1790604245.537261,10.254,-10.742,14.648,10.254
1790604245.541133,-18.555,-20.020,35.645,-25.879
1790604245.545005,-57.129,-31.250,-15.625,-62.500
1790604245.548877,-68.359,-22.949,-57.617,-63.965
1790604245.553104,-58.105,-27.832,-22.949,-43.945
1790604245.556977,-46.875,-37.109,12.695,-30.273
1790604245.560849,-53.223,-26.367,27.832,-41.504
1790604245.564722,-97.656,-26.855,19.531,-115.234
1790604245.568594,-120.605,-23.926,-6.836,-130.859
1790604245.572467,-117.676,-21.484,5.859,-105.469
1790604245.576339,-114.746,-23.438,-3.906,-111.816
1790604245.580211,-149.414,-25.391,-32.227,-140.137
1790604245.584084,-147.461,-22.949,-31.250,-120.117
1790604245.587956,-106.934,-25.391,-31.738,-61.523
1790604245.591829,-104.004,-37.109,-49.316,-68.848
1790604245.595701,-124.512,-46.387,-70.312,-126.953
1790604245.600135,-137.207,-61.035,-65.918,-154.297
1790604245.604008,-119.141,-65.430,-56.641,-130.859
1790604245.607881,-92.285,-56.641,-56.641,-95.703
1790604245.611753,-109.863,-56.152,-53.711,-112.793
1790604245.615626,-120.605,-56.641,-56.152,-123.535
1790604245.619499,-110.840,-53.711,-59.570,-105.469
1790604245.623372,-94.238,-40.527,-47.363,-89.844
1790604245.627244,-97.656,-24.414,-58.105,-106.445
1790604245.631117,-129.395,-30.273,-72.266,-138.184
1790604245.634990,-124.023,-49.805,-76.172,-113.770
1790604245.638863,-86.426,-54.199,-80.566,-96.680
1790604245.642735,-85.938,-51.758,-89.355,-107.422
1790604245.647167,0.000,-57.129,0.000,-150.391
1790604245.651040,0.000,-64.941,0.000,-157.227
1790604245.654913,0.000,-63.965,0.000,-134.766
1790604245.658786,0.000,-60.547,0.000,-117.188
1790604245.662659,0.000,-64.941,0.000,-116.211
1790604245.666532,0.000,-67.383,0.000,-130.859
1790604245.670405,0.000,-67.871,0.000,-127.930
1790604245.674278,0.000,-67.383,0.000,-115.723
1790604245.678151,0.000,-60.547,0.000,-106.445
1790604245.682024,0.000,-57.617,0.000,-90.820
1790604245.685897,0.000,-60.547,0.000,-62.500
1790604245.689770,0.000,-57.129,0.000,-57.617
1790604245.694141,-51.270,-51.270,-51.270,-76.660
1790604245.698014,-68.359,-50.781,-49.805,-102.051
1790604245.701887,-57.129,-44.434,-33.203,-98.145
1790604245.705761,-39.551,-44.922,-16.602,-60.059
1790604245.709634,-21.973,-44.434,-19.531,-39.551
1790604245.713507,-42.480,-48.828,-28.809,-55.176
1790604245.717381,-60.547,-58.105,-27.344,-72.754
1790604245.721254,-32.227,-58.105,-25.879,-59.082
1790604245.725127,-13.672,-66.406,-21.973,-40.039
1790604245.729000,-36.133,-65.430,-31.250,-80.078
1790604245.732874,-62.012,-66.406,-24.902,-90.332
1790604245.736747,-44.922,-74.219,-18.066,-42.480
1790604245.741086,-1.953,-70.801,-22.461,-9.277
1790604245.744960,-15.625,-73.242,-14.648,-45.898
1790604245.748833,-70.312,-78.613,-11.719,-98.633
1790604245.752707,-78.613,-78.613,-11.230,-80.078
1790604245.756580,-31.250,-81.543,-7.324,-27.344
1790604245.760454,-25.879,-84.473,-2.930,-16.113
1790604245.764327,-46.875,-85.938,-0.977,-49.316
1790604245.768201,-35.645,-81.055,-6.836,-36.621
1790604245.772074,-18.555,-79.590,-13.672,-7.812
1790604245.775948,-24.414,-84.961,-20.020,-8.789
1790604245.779821,-25.879,-91.309,-15.625,-27.832
1790604245.783695,-35.156,-91.797,-20.508,-52.734
1790604245.787977,-24.902,-79.590,-22.949,-48.828
1790604245.791851,4.883,-79.590,-5.859,-20.996
1790604245.795724,-22.461,-82.520,-5.371,-30.273
1790604245.799598,-42.480,-81.055,-13.672,-53.223
1790604245.803472,-22.949,-79.102,-14.160,-26.855
1790604245.807346,9.766,-72.754,-1.953,12.207
1790604245.811219,-3.906,-73.242,7.812,-8.789
1790604245.815093,-27.344,-82.031,3.418,-34.668
1790604245.818967,-20.508,-87.402,-1.953,-27.832
1790604245.822840,-7.324,-90.820,-1.953,-12.207
1790604245.826714,6.348,-84.961,7.324,0.977
1790604245.830588,-16.602,-79.102,1.953,-24.414
1790604245.834834,-26.367,-75.195,-7.812,-30.762
1790604245.838708,12.207,-66.895,-3.418,7.812
1790604245.842582,35.156,-64.453,6.348,22.949
1790604245.846455,-4.395,-66.406,10.254,-4.883
1790604245.850329,-20.020,-51.270,5.371,-3.906
1790604245.854203,14.160,-38.086,7.812,30.762
1790604245.858077,39.062,-36.621,13.672,55.664
1790604245.861951,12.207,-30.273,18.555,25.879
1790604245.865825,-25.391,-25.879,12.695,-25.391
1790604245.869699,-0.977,-20.508,8.789,-10.254
1790604245.873573,27.344,-24.414,2.441,30.762
1790604245.877447,14.648,-31.738,4.883,29.297
1790604245.881691,-8.301,-22.949,5.371,2.441
1790604245.885565,-13.184,-14.160,-2.930,-1.953
1790604245.889439,31.250,-14.648,21.484,36.133
1790604245.893313,36.133,-20.508,37.109,54.199
1790604245.897187,-1.953,-36.621,20.020,23.438
1790604245.901062,-3.418,-49.805,13.672,5.371
1790604245.904936,10.742,-53.223,21.484,30.273
1790604245.908810,15.625,-60.547,19.043,43.945
1790604245.912684,-6.836,-54.199,6.836,8.789
1790604245.916558,-7.324,-37.598,11.230,6.836
1790604245.920432,1.953,-46.387,11.230,31.738
1790604245.924306,25.879,-53.711,2.930,44.922
1790604245.928508,12.695,-53.711,14.648,21.973
1790604245.932383,-20.996,-58.594,5.859,9.277
1790604245.936257,-13.672,-58.594,-6.836,14.160
1790604245.940131,9.277,-51.758,1.953,23.926
1790604245.944005,20.020,-41.504,8.789,19.043
1790604245.947880,-5.859,-38.086,6.348,2.930
1790604245.951754,-13.672,-41.016,-5.371,9.277
1790604245.955628,7.324,-42.969,-5.371,29.785
1790604245.959502,6.836,-31.250,-5.371,36.133
1790604245.963377,-15.625,-26.855,3.906,13.184
1790604245.967251,-10.742,-37.598,7.812,0.488
1790604245.971125,16.602,-31.250,9.277,8.301
1790604245.975542,25.391,-18.066,18.066,39.062
1790604245.979417,1.953,-16.113,14.648,19.043
1790604245.983291,-8.301,-22.461,8.301,-2.441
1790604245.987166,11.719,-29.297,6.348,19.531
1790604245.991040,30.273,-24.414,9.277,31.250
1790604245.994915,15.625,-19.043,12.695,20.020
1790604245.998789,-10.254,-18.555,11.230,-2.441
1790604246.002664,-16.113,-19.531,1.953,-3.906
1790604246.006538,-1.465,-21.484,-4.395,31.738
1790604246.010413,-0.977,-24.414,1.465,41.504
1790604246.014287,-30.762,-24.902,1.953,-16.113
1790604246.018162,-35.645,-24.902,-1.465,-23.926
1790604246.022552,-1.953,-25.879,5.371,17.090
1790604246.026427,22.949,-23.438,3.906,23.926
1790604246.030302,-7.812,-31.250,-9.766,-22.949
1790604246.034177,-36.133,-34.668,-6.348,-30.762
1790604246.038051,-4.395,-34.180,3.906,7.812
1790604246.041926,34.180,-30.273,-5.371,20.996
1790604246.045801,1.465,-29.297,-13.672,-5.859
1790604246.049676,-21.484,-26.855,-2.930,-28.320
1790604246.053550,7.812,-19.043,15.137,-6.836
1790604246.057425,27.832,-20.020,13.672,33.203
1790604246.061300,1.953,-19.531,-5.859,18.066
1790604246.065175,-15.625,-20.996,3.906,4.395
1790604246.069523,0.000,-23.926,12.207,20.508
1790604246.073398,0.000,-30.762,2.930,19.043
1790604246.077273,0.000,-38.086,2.930,3.906
1790604246.081148,0.000,-31.250,6.836,-5.371
1790604246.085023,0.000,-29.785,8.301,-12.207
1790604246.088898,0.000,-32.227,4.883,1.953
1790604246.092773,0.000,-20.996,4.883,7.812
1790604246.096648,0.000,-15.137,5.371,-10.742
1790604246.100523,0.000,-19.531,4.395,0.488
1790604246.104398,0.000,-19.043,1.465,13.184
1790604246.108273,0.000,-21.973,0.000,20.020
1790604246.112148,0.000,-20.508,4.883,4.883
1790604246.116469,-10.254,-20.020,5.859,-16.602
1790604246.120345,7.812,-18.555,11.230,10.742
1790604246.124220,19.043,-10.742,7.812,38.086
1790604246.128095,13.672,-7.812,3.418,14.648
1790604246.131970,-2.441,-6.348,10.254,1.465
1790604246.135845,-5.859,-5.859,14.648,6.348
1790604246.139721,21.973,-3.418,11.230,16.602
1790604246.143596,22.949,-4.883,6.836,25.879
1790604246.147471,-12.207,-11.230,2.930,6.836
1790604246.151346,-18.555,-13.672,-1.953,-14.160
1790604246.155222,20.996,-17.090,0.000,6.836
1790604246.159097,37.598,-13.672,5.371,27.832
1790604246.163384,1.953,-8.789,-3.906,-11.719
1790604246.167260,-23.438,-15.625,-7.812,-30.273
1790604246.171135,-1.465,-15.625,5.859,6.836
1790604246.175011,33.203,-9.277,5.371,20.020
1790604246.178886,5.859,-12.207,-0.488,-8.789
1790604246.182761,-26.367,-12.695,2.930,-21.973
1790604246.186637,-25.391,-12.207,6.348,-19.043
1790604246.190512,1.465,-12.207,9.277,16.602
1790604246.194388,11.230,-12.695,0.488,17.578
1790604246.198263,-20.508,-12.207,0.488,-13.672
1790604246.202139,-17.090,-11.719,16.602,-3.418
1790604246.206014,22.461,-10.254,18.066,9.766
1790604246.210744,0.000,-11.230,0.000,5.371
1790604246.214619,0.000,-15.625,0.000,-21.484
1790604246.218495,0.000,-3.418,0.000,-24.902
1790604246.222371,0.000,11.230,0.000,8.301
1790604246.226247,0.000,1.465,0.000,12.695
1790604246.230123,0.000,-10.254,0.000,-24.414
1790604246.233999,0.000,-7.324,0.000,-28.320
1790604246.237875,0.000,-0.488,0.000,-6.836
1790604246.241750,0.000,2.441,0.000,8.789
1790604246.245626,0.000,9.277,0.000,-3.418
1790604246.249502,0.000,5.371,0.000,-23.438
1790604246.253378,0.000,-0.977,0.000,-29.785
1790604246.258583,0.977,-0.977,53.223,-12.207
1790604246.262460,-20.020,0.977,69.336,-12.695
1790604246.266336,-57.617,4.883,98.633,-40.527
1790604246.270212,-64.941,0.488,103.027,-36.133
1790604246.274089,-21.484,9.277,106.934,4.883
1790604246.277965,-12.695,25.391,104.980,5.371
1790604246.281842,-52.734,23.438,110.840,-38.086
1790604246.285718,-54.688,15.137,111.816,-46.387
1790604246.289595,-36.133,12.207,91.797,-13.184
1790604246.293471,3.418,18.555,82.031,19.043
1790604246.297348,-14.648,14.648,90.820,-14.648
1790604246.301224,-42.480,3.906,86.914,-48.340
1790604246.305684,-20.996,0.977,73.730,-18.555
1790604246.309561,21.973,0.977,72.754,21.484
1790604246.313438,20.508,3.906,72.266,26.367
1790604246.317315,1.953,4.395,68.359,27.344
1790604246.321191,9.277,-5.859,64.453,28.320
1790604246.325068,38.574,-19.043,64.941,43.945
1790604246.328945,63.965,-11.230,54.199,62.988
1790604246.332821,34.180,-10.254,35.645,38.574
1790604246.336698,41.504,-10.742,24.414,40.527
1790604246.340575,73.242,-3.418,27.344,61.035
1790604246.344452,83.008,-2.441,28.320,66.895
1790604246.348328,72.266,6.836,19.531,80.566
1790604246.353254,52.246,11.719,11.230,62.988
1790604246.357131,59.570,6.836,2.441,48.828
1790604246.361009,93.262,2.441,10.254,79.590
1790604246.364886,78.125,1.953,7.812,76.660
1790604246.368763,54.199,6.836,-9.277,74.219
1790604246.372640,76.660,8.301,0.977,83.496
1790604246.376518,80.566,9.277,28.320,91.797
1790604246.380395,69.336,13.184,27.344,87.891
1790604246.384272,58.594,8.301,14.160,57.617
1790604246.388149,61.035,6.836,18.555,62.988
1790604246.392026,69.336,12.695,0.977,90.332
1790604246.395904,71.777,14.160,-6.348,76.660
1790604246.401288,66.406,16.113,3.906,53.223
1790604246.405165,55.664,16.113,1.465,65.918
1790604246.409043,56.152,17.578,0.000,100.098
1790604246.412921,74.707,22.949,6.836,100.586
1790604246.416799,67.871,26.367,11.719,62.988
1790604246.420677,54.199,21.973,7.324,62.012
1790604246.424555,69.336,9.766,4.395,84.961
1790604246.428433,82.520,11.719,-9.766,89.844
1790604246.432311,67.871,16.602,-2.441,77.148
1790604246.436189,47.852,9.277,8.789,55.664
1790604246.440067,49.805,10.254,-7.812,57.129
1790604246.443945,84.961,15.137,-14.160,92.773
1790604246.448622,81.055,6.836,-9.766,79.590
1790604246.452501,46.387,4.883,-9.766,55.176
1790604246.456379,46.875,10.742,-14.648,56.152
1790604246.460257,62.988,15.625,-17.578,84.473
1790604246.464135,69.824,18.555,-11.230,108.398
1790604246.468014,48.340,18.066,-1.465,71.777
1790604246.471892,48.828,18.066,-1.953,53.223
1790604246.475770,63.477,17.090,-0.488,64.453
1790604246.479649,61.523,20.020,2.930,90.820
1790604246.483527,38.086,17.578,-13.184,55.664
1790604246.487405,26.367,6.836,-13.184,11.230
1790604246.491284,63.965,3.418,0.000,50.781
1790604246.495505,72.754,2.441,9.277,93.262
1790604246.499384,53.711,5.859,2.441,86.426
1790604246.503262,45.898,9.766,-10.742,55.664
1790604246.507141,41.504,5.859,-0.488,68.848
1790604246.511019,61.035,7.812,12.207,109.375
1790604246.514898,74.707,14.160,8.789,108.887
1790604246.518776,58.594,18.066,5.859,87.402
1790604246.522654,49.805,21.484,23.926,89.355
1790604246.526533,68.848,20.996,26.855,99.121
1790604246.530411,67.871,13.184,7.812,82.520
1790604246.534290,41.504,7.324,-0.977,50.293
1790604246.538168,35.645,10.254,4.395,41.016
1790604246.542384,46.875,11.230,3.418,0.000
1790604246.546263,61.523,13.672,5.859,0.000
1790604246.550141,56.641,20.020,16.113,0.000
1790604246.554020,39.551,20.508,14.648,0.000
1790604246.557899,55.664,15.625,9.277,0.000
1790604246.561777,90.332,9.766,12.207,0.000
1790604246.565656,70.801,11.719,14.160,0.000
1790604246.569534,22.461,17.090,13.672,0.000
1790604246.573413,23.438,14.160,13.184,0.000
1790604246.577291,42.969,8.789,12.695,0.000
1790604246.581170,43.457,11.230,14.160,0.000
1790604246.585049,30.273,16.113,9.277,0.000
1790604246.589204,24.414,11.230,4.883,33.203
1790604246.593083,33.203,6.348,8.301,45.898
1790604246.596962,57.617,1.465,12.207,64.453
1790604246.600841,45.898,-1.953,11.719,47.363
1790604246.604719,35.156,2.930,9.766,45.410
1790604246.608598,54.199,2.441,9.766,76.172
1790604246.612477,59.082,-3.906,15.137,96.191
1790604246.616355,46.387,-6.348,10.254,77.148
1790604246.620234,10.742,-7.324,-10.254,42.480
1790604246.624113,10.254,-7.324,-3.906,42.480
1790604246.627992,54.688,-11.230,8.301,71.289
1790604246.631871,51.270,-6.836,8.301,68.359
1790604246.636034,23.438,-2.441,-3.418,33.691
1790604246.639912,39.062,0.000,2.441,40.527
1790604246.643791,59.570,-1.465,20.020,71.777
1790604246.647670,40.039,-5.859,15.625,58.105
1790604246.651549,4.883,-4.395,10.742,29.297
1790604246.655428,10.254,-8.301,10.254,33.691
1790604246.659307,37.598,-8.789,15.137,72.754
1790604246.663186,35.645,-10.254,7.812,60.059
1790604246.667064,0.488,-17.090,-5.371,16.113
1790604246.670943,-10.742,-17.578,-2.441,14.160
1790604246.674822,17.090,-17.578,-6.836,27.344
1790604246.678701,35.645,-16.602,-2.441,60.059
1790604246.682801,23.438,-17.578,1.465,28.320
1790604246.686680,5.371,-18.555,0.000,-9.277
1790604246.690559,-8.789,-20.996,2.441,11.230
1790604246.694438,17.090,-24.902,-0.977,30.762
1790604246.698317,22.949,-25.879,9.766,23.926
1790604246.702196,21.973,-27.344,24.902,36.133
1790604246.706075,37.109,-16.602,12.207,52.734
1790604246.709954,-7.812,-8.301,-7.324,14.648
1790604246.713833,-24.902,-5.371,-3.418,8.301
1790604246.717712,-30.273,-2.441,0.000,0.488
1790604246.721591,-46.875,-1.465,-7.324,-37.109
1790604246.725470,-32.715,4.395,-25.879,-40.527
1790604246.729766,0.000,2.441,-29.297,-30.762
1790604246.733645,0.000,2.930,-28.809,-44.434
1790604246.737524,0.000,17.578,-37.598,-66.406
1790604246.741404,0.000,25.391,-37.109,-62.988
1790604246.745283,0.000,30.762,-41.992,-45.898
1790604246.749162,0.000,32.227,-41.504,-83.008
1790604246.753041,0.000,24.902,-40.039,-104.980
1790604246.756920,0.000,28.809,-48.828,-78.125
1790604246.760799,0.000,27.832,-48.340,-38.574
1790604246.764678,0.000,25.879,-34.180,-13.672
1790604246.768558,0.000,27.344,-35.645,-37.598
1790604246.772437,0.000,23.926,-38.086,-48.828
1790604246.776686,-20.020,16.602,-31.738,-13.184
1790604246.780565,-8.789,15.137,-30.762,0.000
1790604246.784444,-44.922,17.578,-29.785,-27.344
1790604246.788324,-42.480,6.348,-34.668,-22.949
1790604246.792203,-12.695,3.906,-34.180,-2.441
1790604246.796082,0.977,10.742,-20.020,7.324
1790604246.799962,-24.414,7.324,-25.879,-11.719
1790604246.803841,-32.715,10.254,-30.273,-16.602
1790604246.807720,-9.277,15.137,-18.555,18.066
1790604246.811600,17.090,8.789,-15.137,44.434
1790604246.815479,13.672,0.977,-16.113,28.320
1790604246.819358,-14.160,4.395,-6.348,-0.977
1790604246.823621,0.000,1.465,-3.906,4.395
1790604246.827500,0.000,3.906,-6.836,32.227
1790604246.831380,0.000,7.812,-10.254,24.414
1790604246.835259,0.000,0.000,-19.531,16.113
1790604246.839139,0.000,2.441,-13.672,29.785
1790604246.843018,0.000,5.371,-5.371,31.250
1790604246.846898,0.000,-0.488,-10.742,46.875
1790604246.850777,0.000,4.395,-12.695,26.367
1790604246.854657,0.000,6.348,-8.301,6.348
1790604246.858536,0.000,-2.441,-11.230,21.973
1790604246.862416,0.000,-2.930,-8.301,43.457
1790604246.866295,0.000,1.953,-3.418,25.879
1790604246.870486,-12.207,-3.906,-4.883,-1.465
1790604246.874366,18.555,-8.789,-13.184,26.855
1790604246.878245,46.875,-5.859,-16.113,64.453
1790604246.882125,21.973,-7.324,-10.742,50.781
1790604246.886004,-3.906,-7.812,-2.930,14.160
1790604246.889884,3.418,-11.719,-1.465,20.508
1790604246.893764,20.508,-21.973,-10.254,33.691
1790604246.897643,27.344,-26.855,-8.301,35.645
1790604246.901523,8.301,-21.973,-8.789,23.926
1790604246.905402,-7.324,-17.090,-16.113,-7.324
1790604246.909282,19.531,-12.695,-4.883,16.113
1790604246.913162,35.645,-20.020,-0.488,48.340
1790604246.917371,11.230,-22.949,-8.301,25.391
1790604246.921251,1.465,-12.207,-2.930,21.973
1790604246.925130,21.973,-9.766,3.906,41.992
1790604246.929010,33.203,-11.230,10.742,46.875
1790604246.932890,2.441,-8.789,6.348,25.879
1790604246.936770,-18.066,-13.672,0.977,12.207
1790604246.940650,8.789,-10.254,8.301,29.297
1790604246.944529,36.133,-1.465,10.742,64.941
1790604246.948409,16.113,-3.418,-6.836,43.945
1790604246.952289,-11.719,-3.418,-8.301,6.836
1790604246.956168,-11.230,-4.395,0.977,26.367
1790604246.960048,25.879,-7.812,-4.883,47.852
1790604246.964215,36.133,-6.836,0.000,39.062
1790604246.968095,-3.906,-8.301,0.000,6.348
1790604246.971975,-18.066,-15.625,0.000,-1.953
1790604246.975855,2.930,-12.207,0.000,25.391
1790604246.979735,21.973,-10.742,0.000,34.668
1790604246.983615,3.418,-14.160,0.000,11.719
1790604246.987495,2.930,-5.859,0.000,20.020
1790604246.991374,23.438,-1.953,0.000,40.527
1790604246.995255,31.250,-17.090,0.000,48.828
1790604246.999134,7.812,-19.531,0.000,35.156
1790604247.003014,-23.926,-4.395,0.000,-5.859
1790604247.006894,-23.926,-7.324,0.000,-1.465
1790604247.011043,4.883,-8.301,-11.230,27.344
1790604247.014923,2.930,-1.465,-1.953,26.855
1790604247.018803,-11.719,-3.418,2.441,7.812
1790604247.022683,-6.836,-9.277,-5.859,3.418
1790604247.026563,-2.930,-14.160,-9.766,16.602
1790604247.030443,7.812,-18.555,-13.184,15.137
1790604247.034323,-16.113,-18.555,-12.207,15.625
1790604247.038203,-34.180,-15.625,-11.719,19.531
1790604247.042083,-17.578,-17.578,-21.484,23.926
1790604247.045963,1.953,-18.555,-14.160,29.785
1790604247.049843,-8.301,-14.160,-8.789,3.906
1790604247.053723,-25.879,-7.812,-19.531,-2.441
1790604247.057843,0.000,-14.648,-22.949,2.441
1790604247.061724,0.000,-20.020,-11.230,25.879
1790604247.065604,0.000,-15.625,-7.324,26.855
1790604247.069484,0.000,-16.602,-9.277,-6.348
1790604247.073364,0.000,-12.695,-8.301,-3.906
1790604247.077244,0.000,-11.719,-15.137,36.133
1790604247.081124,0.000,-17.578,-18.555,47.363
1790604247.085004,0.000,-21.484,-18.066,10.254
1790604247.088885,0.000,-16.602,-11.719,3.906
1790604247.092765,0.000,-10.742,1.465,35.645
1790604247.096645,0.000,-16.113,-4.395,51.758
1790604247.100525,0.000,-21.973,-14.160,13.672
1790604247.104201,-14.648,-31.738,-8.789,-17.090
1790604247.108081,19.531,-32.227,-10.742,11.230
1790604247.111961,16.602,-26.367,-12.207,26.855
1790604247.115841,-10.254,-30.762,-8.301,6.348
1790604247.119721,11.230,-28.809,-8.789,9.766
1790604247.123601,36.621,-19.043,-6.348,30.273
1790604247.127481,8.301,-13.672,-2.441,36.133
1790604247.131361,-25.879,-13.672,-8.789,21.973
1790604247.135242,-10.254,-14.160,-19.531,2.441
1790604247.139122,28.320,-15.137,-17.578,19.043
1790604247.143002,21.973,-20.996,-15.137,36.133
1790604247.146882,-14.648,-25.391,-12.695,26.367
1790604247.151147,-6.348,-28.809,-9.277,5.371
1790604247.155027,-9.277,-26.855,-7.812,-5.859
1790604247.158907,10.254,-21.973,-9.766,18.555
1790604247.162787,24.902,-23.926,-13.184,35.645
1790604247.166667,6.836,-21.973,-5.859,16.113
1790604247.170548,-9.766,-19.043,-3.906,18.066
1790604247.174428,4.395,-27.832,-7.324,25.391
1790604247.178308,17.578,-28.320,-10.742,19.043
1790604247.182188,4.395,-16.602,-8.301,13.672
1790604247.186069,-9.766,-20.508,-0.977,-5.859
1790604247.189949,-6.836,-22.461,-19.043,-14.648
1790604247.193829,14.648,-19.043,-21.973,18.555
1790604247.198080,0.000,-24.414,-11.230,23.926
1790604247.201960,0.000,-29.297,-19.043,-0.488
1790604247.205841,0.000,-26.855,-24.902,-4.883
1790604247.209721,0.000,-14.160,-12.207,34.180
1790604247.213601,0.000,-12.695,-8.301,44.434
1790604247.217482,0.000,-20.996,-10.742,9.277
1790604247.221362,0.000,-23.438,-12.207,-8.789
1790604247.225242,0.000,-23.438,-10.742,17.578
1790604247.229123,0.000,-15.625,-6.348,64.941
1790604247.233003,0.000,-8.301,-11.230,35.645
1790604247.236883,0.000,-5.859,-13.672,-24.902
1790604247.240764,0.000,-3.906,-12.695,-16.113
1790604247.244966,6.836,-6.348,-29.785,4.883
1790604247.248846,-7.324,-1.953,-33.203,-11.230
1790604247.252727,-29.297,5.371,-17.578,-28.320
1790604247.256607,-15.137,7.324,-18.066,-18.555
1790604247.260488,8.789,16.602,-28.320,4.883
1790604247.264368,-1.465,18.555,-31.250,-8.789
1790604247.268249,-26.855,13.672,-27.832,-47.363
1790604247.272129,-21.973,19.043,-24.902,-40.039
1790604247.276010,20.020,21.484,-20.508,9.277
1790604247.279890,21.973,20.020,-18.066,12.695
1790604247.283771,-15.137,20.996,-15.137,-22.461
1790604247.287651,-17.090,17.090,-21.973,-22.949
1790604247.291844,16.113,14.648,-29.297,-8.789
1790604247.295725,27.832,18.066,-26.855,13.672
1790604247.299605,5.859,14.160,-15.625,16.602
1790604247.303486,-12.207,13.184,-14.648,-14.160
1790604247.307367,10.254,14.160,-20.020,-10.742
1790604247.311247,44.434,14.160,-19.531,15.137
1790604247.315128,28.320,13.184,-19.043,13.184
1790604247.319008,4.883,19.043,-10.742,2.441
1790604247.322889,12.695,12.207,-18.066,-0.488
1790604247.326770,33.691,9.277,-26.855,17.578
1790604247.330650,40.039,21.973,-5.371,21.973
1790604247.334531,6.348,15.625,-0.488,-4.883
1790604247.338684,0.000,4.883,-5.371,0.488
1790604247.342565,0.000,11.230,5.859,36.621
1790604247.346446,0.000,17.578,8.301,63.477
1790604247.350326,0.000,15.137,2.930,37.109
1790604247.354207,0.000,14.160,4.395,33.203
1790604247.358088,0.000,14.648,2.441,38.574
1790604247.361969,0.000,10.742,-2.441,35.645
1790604247.365849,0.000,1.953,-6.348,25.391
1790604247.369730,0.000,-4.883,-18.555,-0.488
1790604247.373611,0.000,-0.488,-6.836,12.207
1790604247.377491,0.000,-2.930,3.418,38.086
1790604247.381372,0.000,-8.789,1.465,30.273
1790604247.385482,-9.766,-12.207,0.977,5.859
1790604247.389363,8.789,-13.184,-3.906,7.812
1790604247.393244,59.082,-9.766,-9.277,27.832
1790604247.397125,47.363,-9.766,-6.348,20.508
1790604247.401006,5.859,-6.348,1.953,16.113
1790604247.404886,1.465,-3.906,0.000,29.297
1790604247.408767,41.016,-8.301,-4.883,58.594
1790604247.412648,48.340,-11.230,-5.371,57.129
1790604247.416529,-15.625,-15.625,-5.859,21.484
1790604247.420410,-21.484,-12.695,1.465,31.738
1790604247.424290,22.949,-12.207,8.789,43.945
1790604247.428171,51.270,-10.742,3.906,40.527
1790604247.432247,19.531,-5.859,0.488,15.137
1790604247.436127,-11.230,-11.719,9.766,2.441
1790604247.440008,8.789,-9.766,9.766,13.184
1790604247.443889,36.621,-2.441,5.859,34.180
1790604247.447770,33.203,-3.906,-0.977,47.363
1790604247.451651,14.160,-2.441,2.441,35.645
1790604247.455532,2.441,-7.324,6.348,24.414
1790604247.459413,9.766,-17.090,-11.230,27.344
1790604247.463294,9.766,-17.578,-7.812,34.668
1790604247.467175,-13.184,-18.555,0.977,14.160
1790604247.471056,-27.832,-20.996,-10.742,3.418
1790604247.474937,-20.508,-18.066,-17.090,13.672
1790604247.479190,0.488,-16.113,-18.555,20.020
1790604247.483071,-15.625,-18.555,-17.090,-0.977
1790604247.486952,-20.508,-18.555,-9.766,-11.230
1790604247.490833,-1.953,-18.555,-11.230,9.766
1790604247.494714,22.949,-24.414,-20.508,31.250
1790604247.498595,17.578,-29.785,-22.461,22.949
1790604247.502476,-14.160,-31.738,-17.578,9.766
1790604247.506357,-18.066,-36.621,-12.695,23.438
1790604247.510238,13.184,-37.598,-14.648,50.781
1790604247.514119,16.113,-38.086,-15.137,38.574
1790604247.518001,-30.762,-41.504,-15.625,8.789
1790604247.521882,-37.598,-39.551,-16.602,13.672
1790604247.526129,0.977,-25.391,-5.371,34.668
1790604247.530010,17.578,-25.879,1.953,26.367
1790604247.533891,-5.371,-35.645,-6.836,-5.371
1790604247.537772,-21.484,-36.621,-8.301,-6.836
1790604247.541653,1.465,-36.621,-4.883,18.555
1790604247.545534,39.062,-39.062,-14.648,38.574
1790604247.549416,5.859,-40.039,-15.137,14.160
1790604247.553297,-39.062,-41.016,-12.207,1.953
1790604247.557178,-15.625,-32.715,-12.695,31.738
1790604247.561059,19.043,-26.855,-4.883,51.758
1790604247.564940,4.395,-26.855,-5.859,24.414
1790604247.568822,-12.207,-29.297,-4.883,-1.465
1790604247.573030,-3.418,-28.809,-5.371,20.996
1790604247.576911,33.203,-15.625,5.371,57.617
1790604247.580792,45.410,-1.953,25.391,62.988
1790604247.584673,28.809,7.812,31.738,39.062
1790604247.588555,49.316,14.160,39.551,39.551
1790604247.592436,87.402,13.184,37.109,78.613
1790604247.596318,84.473,9.766,32.227,95.215
1790604247.600199,51.270,10.742,30.273,56.152
1790604247.604080,38.574,12.695,40.527,55.176
1790604247.607962,63.477,6.836,37.109,62.500
1790604247.611843,69.824,5.859,24.414,57.129
1790604247.615724,34.668,7.324,31.738,60.547
1790604247.619905,28.809,7.812,29.297,62.500
1790604247.623787,49.805,8.789,17.578,56.152
1790604247.627668,83.008,4.883,16.602,58.594
1790604247.631550,57.129,6.836,19.043,43.457
1790604247.635431,7.812,8.301,18.066,31.250
1790604247.639313,30.273,4.395,17.090,49.805
1790604247.643194,62.500,3.418,7.324,65.430
1790604247.647075,57.617,-0.977,7.324,63.477
1790604247.650957,17.090,-4.395,14.160,50.781
1790604247.654838,1.953,-3.906,11.719,30.762
1790604247.658720,41.504,-2.930,8.301,41.504
1790604247.662601,53.711,-2.441,12.695,72.754
1790604247.666755,29.297,2.441,20.996,48.828
1790604247.670636,16.602,2.441,11.719,17.578
1790604247.674518,33.203,-4.883,10.742,38.086
1790604247.678400,49.805,-11.719,7.812,56.152
1790604247.682281,36.621,-10.254,0.000,42.480
1790604247.686163,7.324,-4.395,1.465,22.461
1790604247.690044,20.996,4.883,6.836,31.250
1790604247.693926,51.758,12.207,14.648,81.055
1790604247.697808,29.785,4.395,10.742,74.219
1790604247.701689,2.441,0.977,-0.977,20.020
1790604247.705571,22.461,-3.906,3.418,21.484
1790604247.709452,42.969,-4.395,0.000,49.805
1790604247.713577,19.043,-6.348,-10.742,49.316
1790604247.717459,-0.488,-10.254,-12.207,29.297
1790604247.721341,-7.324,-2.441,-7.812,24.414
1790604247.725222,5.371,0.000,-8.301,20.020
1790604247.729104,9.277,-4.883,-13.184,13.672
1790604247.732986,-30.762,-8.301,-15.137,-5.371
1790604247.736867,-41.992,-6.348,-10.254,-11.230
1790604247.740749,-24.414,-0.977,-5.371,8.789
1790604247.744631,-18.066,2.441,-16.113,13.672
1790604247.748512,-24.902,0.977,-30.762,-9.766
1790604247.752394,-33.203,9.277,-23.926,-14.648
1790604247.756276,-26.367,10.254,-9.277,4.395
1790604247.760372,-2.930,7.812,-8.789,43.457
1790604247.764254,-11.230,11.230,-4.395,37.109
1790604247.768136,-37.109,7.812,-12.207,-7.324
1790604247.772017,-43.945,-3.418,-23.438,-19.531
1790604247.775899,-16.602,-0.977,-11.230,10.742
1790604247.779781,3.418,9.277,-9.766,34.668
1790604247.783663,-17.578,4.395,-11.230,25.879
1790604247.787544,-26.855,-8.789,-5.859,14.160
1790604247.791426,-4.395,-2.441,-20.020,18.066
1790604247.795308,22.461,7.812,-21.484,49.805
1790604247.799190,-1.953,2.930,-17.578,28.320
1790604247.803071,-35.645,-3.906,-20.508,-9.277
1790604247.807134,-18.066,-7.812,-21.973,1.953
1790604247.811015,26.855,-0.977,-10.742,31.250
1790604247.814897,-4.883,-3.418,3.418,32.227
1790604247.818779,-38.574,-9.277,-2.930,7.324
1790604247.822661,-20.020,-11.230,-14.160,5.859
1790604247.826543,3.418,-17.090,-0.488,36.133
1790604247.830425,-1.465,-17.578,-5.371,26.855
1790604247.834306,-40.039,-22.949,-21.484,0.488
1790604247.838188,-34.668,-27.832,-20.020,8.789
1790604247.842070,3.418,-26.367,-18.555,29.297
1790604247.845952,11.230,-31.250,-11.230,25.391
1790604247.849834,-19.531,-29.785,-11.230,5.371
1790604247.854079,-19.531,-30.762,-8.301,0.488
1790604247.857961,9.766,-28.809,-4.883,15.137
1790604247.861843,15.137,-30.762,-10.254,41.016
1790604247.865725,-18.555,-41.016,-16.113,7.324
1790604247.869607,-33.203,-36.621,-17.578,-24.902
1790604247.873489,-12.695,-37.109,-12.207,5.371
1790604247.877371,17.578,-37.598,-11.719,30.273
1790604247.881253,3.906,-32.715,-10.742,15.137
1790604247.885135,-27.832,-32.715,-10.254,1.465
1790604247.889017,-8.789,-27.832,-13.672,25.879
1790604247.892899,14.160,-31.738,-7.812,51.758
1790604247.896781,-3.418,-40.527,-3.906,34.668
1790604247.901012,-19.531,-45.410,-9.766,-4.395
1790604247.904894,-0.488,-40.527,-12.695,6.348
1790604247.908776,9.277,-40.039,-17.090,30.273
1790604247.912658,4.395,-39.062,-15.625,27.832
1790604247.916541,-25.879,-37.109,-16.113,20.020
1790604247.920423,-45.410,-36.621,-20.996,15.137
1790604247.924305,-18.066,-27.344,-19.531,34.668
1790604247.928187,4.883,-24.902,-20.508,26.855
1790604247.932069,-13.672,-29.297,-14.648,11.719
1790604247.935951,-26.855,-26.367,-10.742,14.160
1790604247.939833,-17.578,-29.785,-20.508,-5.371
1790604247.943715,12.207,-25.391,-20.996,27.344
1790604247.947908,-4.883,-24.902,-24.902,15.625
1790604247.951790,-35.156,-28.809,-23.438,-10.254
1790604247.955673,-1.953,-23.926,-7.812,17.090
