timestamp,TP9,AF7,AF8,TP10
1790598804.669665,-0.488,0.000,0.000,-0.488
1790598804.673525,0.000,0.000,-0.977,0.000
1790598804.677384,0.488,-1.465,4.883,-0.488
1790598804.681244,-4.883,2.441,-20.996,-1.465
1790598804.685104,17.578,-14.160,72.754,2.930
1790598804.688963,-15.137,-38.574,29.297,-19.043
1790598804.692823,-86.914,-37.598,-140.625,-62.500
1790598804.696682,-60.547,-37.109,-89.355,-4.395
1790598804.700542,26.855,-31.250,-58.105,37.109
1790598804.704401,27.832,-32.715,-66.895,-18.555
1790598804.708261,-78.613,-41.504,-82.031,-54.688
1790598804.712121,-104.004,-39.551,-76.172,-45.898
1790598804.715098,-18.066,-32.227,-72.754,8.301
1790598804.718884,41.992,-30.762,-70.312,72.266
1790598804.722670,-49.316,-36.621,-56.152,30.762
1790598804.726456,-116.699,-40.039,-40.039,-78.613
1790598804.730242,-59.570,-48.828,-33.203,-72.754
1790598804.734029,19.531,-50.293,-27.832,-22.949
1790598804.737815,-34.180,-48.340,-21.973,-70.801
1790598804.741601,-96.680,-53.711,-23.438,-95.215
1790598804.745387,-55.664,-58.594,-15.137,-57.617
1790598804.749173,8.301,-64.453,-11.719,-13.184
1790598804.752959,-11.230,-69.824,-15.137,22.461
1790598804.756745,-111.816,-78.125,-10.254,-75.195
1790598804.758063,-104.004,-83.008,-4.395,-82.031
1790598804.761746,-17.578,-76.660,2.930,-7.324
1790598804.765429,-17.578,-79.102,6.836,-5.859
1790598804.769112,-112.305,-85.449,1.465,-43.945
1790598804.772795,-115.234,-73.730,-15.137,-40.527
1790598804.776479,-21.973,-66.895,-19.531,6.836
1790598804.780162,31.250,-63.477,-17.090,9.766
1790598804.783845,-33.691,-64.453,-23.926,-15.137
1790598804.787528,-98.145,-71.289,-32.715,-29.785
1790598804.791212,-59.570,-66.895,-29.297,-11.230
1790598804.794895,29.297,-57.129,-24.902,0.488
1790598804.798578,-9.277,-51.758,-31.738,-23.438
1790598804.798209,-114.258,-64.453,-38.574,-38.086
1790598804.801780,-94.727,-75.195,-41.504,-44.434
1790598804.805350,4.395,-66.406,-45.898,-37.109
1790598804.808921,5.371,-61.523,-57.129,-27.832
1790598804.812492,-79.102,-65.918,-65.430,-51.270
1790598804.816062,-88.379,-66.406,-62.012,-54.199
1790598804.819633,-5.371,-61.523,-45.898,-24.414
1790598804.823204,15.625,-62.500,-41.016,2.441
1790598804.826774,-84.473,-68.359,-44.922,-13.672
1790598804.830345,-102.051,-68.359,-46.875,-60.547
1790598804.833916,-23.438,-62.500,-52.246,-45.410
1790598804.837486,27.344,-51.758,-54.688,-2.441
1790598804.838468,-49.805,-52.734,-61.035,-54.199
1790598804.841985,-111.328,-58.105,-64.453,-60.547
1790598804.845502,-54.688,-53.223,-61.035,-20.020
1790598804.849018,23.926,-53.223,-61.035,4.883
1790598804.852535,-13.184,-51.270,-56.641,-24.902
1790598804.856052,-95.703,-52.246,-58.594,-65.430
1790598804.859569,-77.148,-53.711,-58.105,-33.203
1790598804.863085,12.695,-46.387,-57.129,-13.672
1790598804.866602,21.484,-38.086,-69.336,-26.855
1790598804.870119,-77.148,-39.062,-74.219,-47.363
1790598804.873636,-88.867,-45.898,-65.918,-63.965
1790598804.877152,-3.418,-47.852,-55.176,-36.133
1790598804.880032,37.598,-50.293,-52.734,-16.113
1790598804.883538,-57.617,-61.523,-56.641,-59.570
1790598804.887044,-102.051,-68.848,-64.941,-68.848
1790598804.890551,-20.020,-62.988,-68.359,-28.320
1790598804.894057,37.109,-53.223,-57.129,-1.953
1790598804.897563,-31.250,-47.363,-52.734,25.391
1790598804.901069,-97.656,-43.457,-53.223,-24.414
1790598804.904575,-50.293,-38.086,-56.152,-81.055
1790598804.908081,23.438,-32.227,-57.617,-24.902
1790598804.911587,-1.953,-33.203,-57.129,-14.160
1790598804.915093,-80.078,-39.062,-64.453,-53.223
1790598804.918600,-70.801,-41.016,-58.594,-36.621
1790598804.921478,27.832,-38.086,-42.480,41.504
1790598804.924975,35.645,-26.367,-50.781,19.531
1790598804.928473,-71.289,-22.949,-64.453,-53.711
1790598804.931970,-75.684,-26.367,-68.848,-51.758
1790598804.935467,-1.953,-31.738,-75.684,0.000
1790598804.938965,15.137,-37.598,-76.660,-2.930
1790598804.942462,-55.664,-43.457,-81.055,-55.176
1790598804.945959,-84.473,-45.410,-78.125,-57.129
1790598804.949457,-23.438,-38.574,-66.406,-21.484
1790598804.952954,47.363,-34.668,-63.965,38.086
1790598804.956452,-14.648,-36.133,-66.895,-1.465
1790598804.959949,-79.102,-34.180,-59.082,-64.453
1790598804.963027,-40.039,-34.180,-53.711,-50.293
1790598804.966520,50.781,-31.738,-56.152,-7.812
1790598804.970012,38.574,-29.297,-64.941,7.812
1790598804.973504,-60.547,-39.062,-70.312,-26.855
1790598804.976997,-58.105,-41.504,-66.895,-37.598
1790598804.980489,18.066,-29.785,-59.570,-21.973
1790598804.983982,35.645,-26.367,-54.199,23.438
1790598804.987474,-43.945,-27.832,-63.965,-1.953
1790598804.990966,-69.336,-30.273,-72.754,-47.363
1790598804.994459,-9.277,-31.738,-60.547,-25.879
1790598804.997951,48.340,-18.555,-56.641,-5.859
1790598805.001443,-14.648,-14.648,-62.988,-24.902
1790598805.004291,-69.336,-13.184,-50.293,-37.109
1790598805.007776,-20.020,-3.418,-37.598,14.648
1790598805.011262,43.945,-8.789,-44.434,22.461
1790598805.014748,9.766,-18.555,-48.828,-6.348
1790598805.018234,-64.453,-23.438,-52.734,-63.477
1790598805.021719,-38.574,-27.344,-57.129,-57.129
1790598805.025205,40.039,-25.879,-52.246,46.387
1790598805.028691,17.578,-28.809,-50.293,12.207
1790598805.032176,-68.359,-30.762,-49.316,-50.781
1790598805.035662,-64.453,-29.785,-49.316,-31.738
1790598805.039148,9.766,-21.484,-48.340,-23.438
1790598805.042633,33.691,-21.973,-39.062,-13.184
1790598805.046468,-58.105,-30.273,-48.828,-25.879
1790598805.049957,-87.402,-28.320,-56.152,-37.598
1790598805.053446,-19.531,-32.227,-42.480,-36.133
1790598805.056935,32.227,-28.809,-35.645,-4.883
1790598805.060424,-30.273,-26.855,-47.363,-52.734
1790598805.063913,-81.543,-34.668,-57.617,-67.383
1790598805.067402,-38.574,-34.668,-52.734,-35.645
1790598805.070891,22.461,-35.645,-42.969,-2.930
1790598805.074380,-15.625,-42.480,-50.293,-6.836
1790598805.077869,-111.328,-47.363,-57.129,-59.570
1790598805.081358,-94.238,-49.805,-46.387,-22.949
1790598805.084846,3.418,-43.457,-48.340,6.348
1790598805.090771,25.879,-35.645,-64.941,-62.012
1790598805.094280,-60.059,-37.109,-65.430,-93.750
1790598805.097789,-93.750,-40.039,-45.410,-79.590
1790598805.101299,-28.320,-44.922,-46.387,-38.574
1790598805.104808,0.488,-48.828,-52.734,-9.766
1790598805.108317,-72.754,-44.434,-59.082,-41.992
1790598805.111826,-105.957,-37.109,-61.035,-49.805
1790598805.115335,-39.062,-36.621,-54.199,-56.641
1790598805.118845,32.227,-38.574,-47.363,-51.758
1790598805.122354,-29.297,-40.039,-50.293,-43.945
1790598805.125863,-109.863,-44.434,-50.781,-59.570
1790598805.129372,-77.148,-52.734,-52.246,-60.059
1790598805.135258,9.277,-45.410,-50.293,-29.297
1790598805.138785,4.883,-40.039,-56.152,-17.578
1790598805.142312,-78.613,-48.828,-65.918,-63.965
1790598805.145839,-65.430,-47.852,-62.988,-55.176
1790598805.149367,7.324,-50.781,-69.336,14.160
1790598805.152894,14.648,-58.105,-71.289,55.176
1790598805.156421,-70.801,-53.711,-67.871,-56.641
1790598805.159948,-97.656,-51.270,-69.336,-95.215
1790598805.163476,-8.789,-47.363,-68.848,-12.207
1790598805.167003,44.922,-41.016,-76.172,-18.555
1790598805.170530,-56.641,-46.387,-76.660,-58.105
1790598805.174057,-108.398,-47.852,-72.754,-79.590
1790598805.179906,-53.223,-42.480,-75.195,-49.805
1790598805.183449,21.973,-34.668,-77.148,-3.906
1790598805.186992,-5.859,-33.203,-80.078,-19.531
1790598805.190536,-79.102,-38.574,-78.613,-30.273
1790598805.194079,-68.848,-43.945,-70.801,-19.531
1790598805.197622,11.230,-45.410,-69.336,19.531
1790598805.201166,3.906,-41.992,-81.055,2.930
1790598805.204709,-84.961,-36.621,-88.867,-70.801
1790598805.208252,-80.566,-40.527,-91.797,-74.707
1790598805.211796,-18.066,-41.016,-82.031,-24.902
1790598805.215339,16.602,-32.227,-80.078,7.324
1790598805.218882,-51.758,-29.785,-91.797,-51.758
1790598805.224642,-88.867,-36.133,-88.867,-50.293
1790598805.228199,-16.602,-28.809,-81.055,-12.207
1790598805.231756,46.875,-17.090,-78.613,11.230
1790598805.235314,-9.766,-12.207,-90.820,-7.812
1790598805.238872,-64.941,-20.508,-84.961,-72.754
1790598805.242429,-41.992,-34.668,-57.129,-0.488
1790598805.245987,18.066,-31.250,-49.805,48.340
1790598805.249544,-6.348,-23.926,-67.871,-15.137
1790598805.253102,-88.379,-25.879,-82.520,-59.082
1790598805.256659,-67.383,-28.809,-84.961,-73.242
1790598805.260217,30.762,-25.391,-83.496,-26.855
1790598805.263774,25.391,-29.297,-74.219,2.930
1790598805.269627,-63.477,-35.156,-76.660,-44.434
1790598805.273198,-70.801,-34.180,-81.055,-24.902
1790598805.276769,4.883,-35.645,-76.172,28.809
1790598805.280340,46.387,-32.227,-70.312,19.531
1790598805.283912,-34.668,-23.438,-72.754,-38.574
1790598805.287483,-74.707,-33.203,-78.613,-54.688
1790598805.291054,-20.020,-41.504,-68.848,-12.695
1790598805.294625,34.668,-37.598,-57.129,19.531
1790598805.298197,-25.879,-31.738,-50.781,-11.230
1790598805.301768,-78.613,-27.832,-53.223,-21.973
1790598805.305339,-31.250,-30.762,-57.617,5.371
1790598805.308910,34.668,-35.645,-53.223,-15.625
1790598805.314553,0.977,-43.945,-58.105,-13.672
1790598805.318136,-78.125,-41.992,-61.035,-39.062
1790598805.321719,-42.969,-28.809,-54.688,-36.133
1790598805.325302,38.086,-23.438,-50.293,-0.977
1790598805.328884,36.133,-25.391,-50.293,-5.859
1790598805.332467,-52.734,-30.762,-53.711,-52.734
1790598805.336050,-78.613,-31.738,-62.012,-61.523
1790598805.339633,-5.371,-29.785,-60.547,-7.812
1790598805.343215,42.480,-30.762,-48.828,4.883
1790598805.346798,-23.438,-29.297,-60.059,-46.875
1790598805.350381,-73.242,-30.762,-67.871,-58.594
1790598805.353963,-41.992,-32.227,-55.664,-36.133
1790598805.359905,28.320,-32.715,-49.805,-20.996
1790598805.363499,-8.789,-32.227,-56.152,-15.137
1790598805.367095,-94.238,-39.551,-55.176,-58.594
1790598805.370689,-63.477,-38.086,-44.434,-69.824
1790598805.374285,15.625,-35.156,-45.898,-10.254
1790598805.377879,6.348,-38.574,-50.781,-24.414
1790598805.381474,-61.523,-36.133,-50.293,-62.988
1790598805.385069,-75.195,-31.738,-43.457,-39.551
1790598805.388664,-4.883,-27.832,-40.039,-14.648
1790598805.392259,32.227,-19.531,-36.621,-10.254
1790598805.395854,-53.223,-17.578,-38.086,-32.715
1790598805.399449,-79.102,-22.949,-36.133,-35.156
1790598805.404992,-19.043,-24.414,-28.809,-9.277
1790598805.408597,24.414,-26.855,-30.273,-5.859
1790598805.412201,-31.250,-33.203,-38.086,-45.410
1790598805.415806,-87.402,-32.715,-36.133,-69.824
1790598805.419410,-35.156,-33.691,-37.598,6.836
1790598805.423015,35.156,-28.320,-47.852,61.523
1790598805.426620,2.441,-28.320,-47.363,-27.344
1790598805.430224,-67.383,-29.785,-41.504,-69.824
1790598805.433829,-67.871,-29.785,-32.227,-67.871
1790598805.437433,0.488,-38.086,-36.621,-31.738
1790598805.441038,-1.465,-43.945,-50.781,-20.020
1790598805.444642,-82.031,-47.852,-49.316,-65.430
1790598805.451464,-82.520,-45.898,-50.293,-69.824
1790598805.455084,1.953,-43.945,-57.617,-31.250
1790598805.458703,30.273,-34.180,-50.781,-5.859
1790598805.462323,-45.410,-31.250,-37.598,-39.551
1790598805.465942,-63.965,-31.738,-40.527,-30.762
1790598805.469562,-11.719,-32.715,-47.363,-4.395
1790598805.473181,34.668,-37.109,-47.852,-25.391
1790598805.476800,-35.645,-32.227,-62.012,-53.711
1790598805.480420,-90.332,-28.320,-63.965,-59.082
1790598805.484039,-43.457,-30.762,-52.734,-38.574
1790598805.487659,30.762,-25.391,-41.992,0.000
1790598805.491278,3.418,-25.879,-38.574,-21.973
1790598805.498095,-89.844,-32.227,-50.781,-84.473
1790598805.501729,-76.172,-35.156,-55.176,-55.664
1790598805.505362,7.812,-39.062,-46.875,-2.930
1790598805.508996,17.090,-40.527,-54.199,-21.973
1790598805.512629,-76.660,-40.527,-61.523,-70.801
1790598805.516263,-94.238,-37.109,-60.059,-62.988
1790598805.519896,-21.973,-39.062,-57.129,-23.926
1790598805.523529,20.996,-31.250,-51.270,3.906
1790598805.527163,-38.086,-15.625,-55.664,-34.668
1790598805.530796,-85.938,-20.508,-54.688,-68.848
1790598805.534430,-45.898,-32.227,-48.828,-13.184
1790598805.538063,17.578,-33.691,-48.828,30.762
1790598805.544451,-40.039,-33.691,-52.734,-36.133
1790598805.548096,-102.051,-30.273,-62.012,-65.918
1790598805.551741,-61.523,-32.227,-60.059,-50.781
1790598805.555386,11.719,-33.691,-56.152,-5.371
1790598805.559031,-8.789,-30.762,-59.570,-33.691
1790598805.562676,-89.844,-44.922,-70.801,-83.984
1790598805.566321,-82.520,-51.270,-68.848,-61.523
1790598805.569966,16.602,-43.945,-58.105,-20.996
1790598805.573611,45.898,-39.551,-54.199,12.207
1790598805.577255,-78.613,-40.527,-61.523,-30.273
1790598805.580900,-107.422,-37.109,-71.777,-71.777
1790598805.584545,-15.625,-32.715,-67.871,-41.504
1790598805.590690,16.113,-37.109,-63.965,-21.484
1790598805.594345,-69.824,-39.062,-69.824,-62.012
1790598805.598000,-118.164,-40.527,-84.473,-90.820
1790598805.601655,-71.289,-40.039,-78.125,-61.523
1790598805.605310,-13.184,-52.734,-64.941,-14.160
1790598805.608964,-48.828,-70.312,-81.543,-51.758
1790598805.612619,-102.539,-62.500,-87.402,-94.238
1790598805.616274,-79.590,-46.387,-67.383,-49.316
1790598805.619929,-17.578,-42.969,-57.129,-10.742
1790598805.623584,-21.484,-40.039,-59.570,-29.297
1790598805.627239,-99.121,-39.062,-78.125,-79.590
1790598805.630894,-87.891,-41.992,-82.031,-60.547
1790598805.636953,-20.996,-43.457,-64.453,-23.926
1790598805.640617,-7.324,-42.969,-53.223,-40.039
1790598805.644281,-74.707,-49.316,-62.012,-67.383
1790598805.647945,-108.398,-51.758,-70.312,-69.336
1790598805.651609,-42.480,-50.293,-68.848,-32.715
1790598805.655273,21.484,-53.223,-61.523,24.414
1790598805.658937,-37.109,-50.781,-59.570,-15.137
1790598805.662601,-83.496,-45.898,-65.430,-85.938
1790598805.666265,-54.199,-46.387,-69.336,-60.059
1790598805.669929,9.277,-43.945,-62.500,-18.555
1790598805.673593,-9.277,-41.992,-58.594,-45.410
1790598805.677257,-89.355,-40.039,-65.430,-81.055
1790598805.683089,-74.219,-38.086,-65.430,-60.059
1790598805.686761,3.418,-30.762,-52.734,0.000
1790598805.690433,2.930,-29.297,-59.570,5.859
1790598805.694105,-74.219,-31.250,-64.453,-47.363
1790598805.697777,-82.031,-27.344,-57.129,-40.039
1790598805.701449,0.000,-26.855,-59.082,-25.391
1790598805.705121,48.340,-21.484,-61.523,-17.578
1790598805.708792,-28.320,-19.531,-62.500,-42.480
1790598805.712464,-79.102,-26.367,-61.523,-65.430
1790598805.716136,-27.344,-34.668,-60.547,-23.438
1790598805.719808,32.715,-39.062,-57.617,1.953
1790598805.723480,-26.367,-32.715,-57.129,-16.602
1790598805.729487,-91.309,-33.203,-52.734,-61.523
1790598805.733167,-56.641,-40.039,-49.316,-54.199
1790598805.736847,22.949,-33.203,-43.457,-2.930
1790598805.740527,7.812,-27.832,-45.410,-1.465
1790598805.744207,-79.102,-36.621,-55.176,-58.594
1790598805.747887,-80.078,-46.875,-72.266,-67.871
1790598805.751566,-6.836,-53.223,-80.566,-15.625
1790598805.755246,5.859,-54.688,-73.730,-16.602
1790598805.758926,-77.637,-51.270,-75.195,-77.148
1790598805.762606,-96.191,-55.176,-69.824,-72.754
1790598805.766286,-31.250,-56.641,-57.617,-13.184
1790598805.769966,11.230,-45.410,-61.035,14.160
1790598805.775485,-60.059,-43.945,-75.195,-36.621
1790598805.779171,-104.004,-45.410,-75.195,-57.617
1790598805.782857,-44.922,-35.645,-66.406,-23.438
1790598805.786543,19.043,-38.574,-56.641,-5.859
1790598805.790229,-31.738,-42.969,-60.059,-32.715
1790598805.793915,-84.473,-33.203,-67.383,-58.105
1790598805.797601,-63.965,-33.203,-65.918,-44.922
1790598805.801287,-0.977,-37.109,-67.871,-28.809
1790598805.804974,-4.883,-41.016,-63.965,-15.625
1790598805.808660,-90.820,-41.016,-61.035,-64.453
1790598805.812346,-74.707,-24.902,-57.129,-73.242
1790598805.816032,4.395,-29.297,-55.664,-21.973
1790598805.822492,14.160,-40.527,-63.477,-14.160
1790598805.826187,-72.266,-44.434,-71.289,-61.523
1790598805.829882,-88.867,-43.457,-79.102,-59.082
1790598805.833577,-29.297,-39.062,-75.195,-29.297
1790598805.837272,12.207,-37.598,-56.152,-22.461
1790598805.840967,-45.410,-36.133,-54.688,-63.965
1790598805.844662,-94.238,-43.945,-60.059,-73.242
1790598805.848357,-45.410,-47.363,-59.082,-32.715
1790598805.852052,24.902,-45.898,-59.082,-11.230
1790598805.855747,-12.207,-38.574,-62.988,-25.879
1790598805.859442,-81.055,-32.227,-56.641,-45.410
1790598805.863137,-56.152,-28.320,-55.176,-28.809
1790598805.869503,27.832,-26.367,-62.012,8.301
1790598805.873207,9.766,-34.668,-52.246,-12.207
1790598805.876910,-79.102,-44.434,-43.945,-73.730
1790598805.880613,-70.312,-41.504,-47.852,-52.246
1790598805.884316,-19.043,-41.992,-43.945,-5.859
1790598805.888020,15.625,-46.875,-47.852,8.301
1790598805.891723,-47.363,-39.551,-48.828,-15.625
1790598805.895426,-96.680,-42.480,-35.156,-58.594
1790598805.899129,-23.438,-46.387,-35.645,-43.945
1790598805.902833,32.715,-41.992,-35.645,15.137
1790598805.906536,-44.922,-39.062,-38.086,-31.250
1790598805.910239,-79.590,-38.086,-42.969,-71.777
1790598805.916363,-32.227,-40.039,-34.180,-14.160
1790598805.920073,28.809,-31.738,-30.762,0.000
1790598805.923784,-3.906,-31.250,-40.527,-20.996
1790598805.927494,-86.914,-39.062,-48.340,-49.316
1790598805.931204,-76.172,-41.992,-56.641,-65.430
1790598805.934915,5.859,-39.551,-63.965,-25.879
1790598805.938625,17.090,-42.969,-60.547,-8.301
1790598805.942336,-72.754,-51.270,-58.594,-40.039
1790598805.946046,-82.031,-48.340,-56.152,-29.785
1790598805.949756,-12.207,-47.363,-57.617,-28.809
1790598805.953467,16.113,-50.781,-63.965,-11.230
1790598805.957177,-62.012,-40.527,-63.477,-30.273
1790598805.964106,-98.633,-39.551,-59.570,-62.500
1790598805.967826,-37.598,-44.922,-55.176,-23.926
1790598805.971545,23.438,-39.551,-60.059,14.648
1790598805.975265,-25.391,-31.250,-64.941,-19.531
1790598805.978985,-86.426,-26.855,-55.176,-54.199
1790598805.982704,-55.176,-27.344,-49.316,-43.945
1790598805.986424,19.043,-33.203,-58.594,-20.508
1790598805.990144,2.930,-40.039,-65.918,-19.531
1790598805.993863,-85.449,-39.062,-65.918,-60.547
1790598805.997583,-84.473,-35.156,-60.059,-56.152
1790598806.001302,-8.789,-28.320,-60.059,-11.719
1790598806.005022,17.090,-27.832,-60.547,5.859
1790598806.010616,-59.082,-28.809,-63.477,-46.875
1790598806.014341,-81.055,-27.832,-64.941,-49.805
1790598806.018066,-6.836,-20.996,-61.523,1.953
1790598806.021791,29.297,-18.555,-59.570,-18.555
1790598806.025516,-44.434,-26.367,-63.477,-48.828
1790598806.029240,-104.980,-31.738,-61.523,-75.195
1790598806.032965,-57.129,-33.691,-53.223,-71.777
1790598806.036690,22.949,-30.762,-44.922,-18.555
1790598806.040415,-16.113,-35.156,-46.387,-32.715
1790598806.044140,-98.633,-36.133,-50.781,-65.430
1790598806.047865,-86.426,-39.062,-40.527,-57.617
1790598806.051589,1.465,-44.922,-36.133,-4.395
1790598806.057144,12.695,-38.086,-32.715,-6.348
1790598806.060874,-74.219,-35.156,-24.902,-56.641
1790598806.064603,-82.031,-35.156,-24.902,-35.156
1790598806.068333,-0.977,-33.691,-24.902,-2.930
1790598806.072063,32.227,-32.715,-23.926,2.441
1790598806.075793,-40.039,-33.691,-44.922,-18.555
1790598806.079522,-52.734,-30.273,-54.199,-10.742
1790598806.083252,4.395,-32.227,-39.062,-7.812
1790598806.086982,39.062,-29.785,-31.738,10.742
1790598806.090712,-12.207,-23.926,-46.875,-6.836
1790598806.094441,-74.707,-27.344,-55.176,-44.434
1790598806.098171,-40.039,-34.668,-46.875,-25.391
1790598806.103517,27.832,-33.691,-40.527,-7.324
1790598806.107251,-1.465,-25.879,-37.598,-36.133
1790598806.110985,-73.242,-28.320,-42.969,-42.480
1790598806.114719,-54.688,-33.203,-39.551,-29.785
1790598806.118453,12.695,-28.320,-31.250,-3.418
1790598806.122187,30.273,-23.926,-34.180,9.277
1790598806.125921,-58.594,-36.133,-52.734,-24.902
1790598806.129655,-89.844,-48.828,-66.406,-55.176
1790598806.133389,-23.926,-36.621,-60.059,-52.246
1790598806.137123,5.859,-29.297,-54.688,-18.555
1790598806.140857,-51.758,-32.227,-45.410,-25.391
1790598806.144591,-72.266,-26.855,-41.016,-55.176
1790598806.149778,-13.184,-21.484,-41.016,-30.762
1790598806.153516,39.062,-16.113,-40.527,3.906
1790598806.157254,-16.113,-20.020,-48.340,-14.160
1790598806.160991,-74.707,-29.297,-51.270,-48.340
1790598806.164729,-42.480,-39.551,-47.363,-51.758
1790598806.168467,18.066,-47.363,-47.363,-19.531
1790598806.172204,-1.953,-39.551,-45.410,-21.973
1790598806.175942,-92.773,-37.109,-54.688,-64.941
1790598806.179680,-94.727,-38.574,-63.477,-73.242
1790598806.183417,-1.465,-34.180,-63.477,-41.504
1790598806.187155,7.324,-38.086,-67.871,-20.996
1790598806.190892,-86.914,-46.387,-65.918,-37.598
1790598806.196979,-92.773,-42.969,-70.801,-60.059
1790598806.200722,-10.254,-31.250,-70.801,-26.855
1790598806.204466,13.672,-39.062,-63.477,-0.488
1790598806.208209,-61.035,-51.758,-62.988,-41.016
1790598806.211952,-99.121,-48.340,-66.406,-72.266
1790598806.215696,-52.246,-45.410,-68.359,-70.312
1790598806.219439,6.348,-52.246,-63.965,-26.855
1790598806.223183,-37.109,-55.176,-73.242,-55.664
1790598806.226926,-103.516,-52.734,-74.707,-83.008
1790598806.230669,-74.707,-41.016,-69.336,-48.340
1790598806.234413,-1.953,-35.156,-65.918,-12.207
1790598806.238156,-13.672,-35.156,-63.965,-10.254
1790598806.244081,-88.867,-28.809,-72.754,-34.180
1790598806.247830,-75.195,-25.391,-72.266,-46.875
1790598806.251579,-13.672,-32.715,-68.848,-17.578
1790598806.255327,11.719,-37.109,-65.430,-2.441
1790598806.259076,-47.363,-32.227,-63.965,-75.195
1790598806.262824,-83.984,-32.227,-73.730,-91.309
1790598806.266573,-40.039,-41.504,-81.055,-56.641
1790598806.270322,-3.906,-56.641,-80.078,-21.484
1790598806.274070,-36.133,-57.617,-88.867,-25.879
1790598806.277819,-79.590,-48.340,-80.566,-61.523
1790598806.281567,-66.406,-39.551,-69.336,-53.223
1790598806.285316,-7.324,-44.434,-69.336,-20.508
1790598806.291074,-19.043,-41.992,-69.336,-41.016
1790598806.294827,-74.219,-35.156,-73.730,-59.570
1790598806.298581,-71.777,-34.668,-72.266,-41.504
1790598806.302334,-1.953,-32.227,-66.895,-31.250
1790598806.306087,13.184,-27.344,-61.035,-34.180
1790598806.309840,-55.176,-22.949,-63.477,-52.246
1790598806.313594,-72.266,-26.855,-62.988,-64.941
1790598806.317347,-15.625,-31.738,-60.547,-39.062
1790598806.321100,16.602,-36.133,-63.477,0.977
1790598806.324853,-59.082,-37.109,-58.594,-42.480
1790598806.328607,-83.496,-34.668,-63.477,-79.102
1790598806.332360,-13.672,-33.203,-67.383,-29.785
1790598806.337865,33.691,-29.297,-52.734,-7.812
1790598806.341622,-26.367,-31.250,-51.270,-37.109
1790598806.345380,-86.426,-42.480,-64.453,-67.871
1790598806.349137,-43.457,-44.434,-59.570,-41.504
1790598806.352894,19.043,-31.250,-49.316,17.578
1790598806.356651,-8.789,-23.438,-66.895,-13.184
1790598806.360408,-76.172,-21.484,-71.289,-51.758
1790598806.364166,-61.523,-17.090,-52.246,-35.156
1790598806.367923,8.789,-17.090,-47.363,24.902
1790598806.371680,7.324,-24.902,-43.457,3.418
1790598806.375437,-63.477,-24.414,-39.551,-78.613
1790598806.379194,-72.266,-23.438,-41.016,-66.895
1790598806.384662,-8.789,-22.461,-35.156,-15.625
1790598806.388423,23.438,-13.672,-35.156,-0.488
1790598806.392184,-39.551,-15.137,-44.434,-36.621
1790598806.395945,-68.359,-19.043,-47.852,-37.109
1790598806.399706,-21.484,-11.719,-44.922,-15.625
1790598806.403467,37.109,-10.254,-30.762,2.930
1790598806.407228,-9.766,-20.020,-31.250,-15.137
1790598806.410989,-81.543,-30.273,-43.945,-49.805
1790598806.414750,-49.805,-25.879,-46.875,-40.527
1790598806.418511,20.996,-18.555,-40.527,-14.648
1790598806.422272,11.230,-19.531,-42.480,-45.898
1790598806.426033,-61.035,-25.879,-55.176,-71.777
1790598806.431251,-72.754,-38.086,-44.434,-46.875
1790598806.435015,-26.855,-42.480,-32.715,-49.805
1790598806.438779,0.000,-38.086,-37.109,-42.969
1790598806.442543,-66.895,-39.551,-41.016,-53.711
1790598806.446307,-98.633,-48.340,-48.340,-59.082
1790598806.450071,-26.855,-53.711,-41.016,-8.789
1790598806.453835,21.973,-51.270,-35.645,7.324
1790598806.457599,-41.504,-41.992,-39.062,-37.598
1790598806.461363,-92.285,-36.621,-33.203,-60.059
1790598806.465127,-38.574,-32.227,-35.156,-33.691
1790598806.468891,29.297,-35.645,-49.316,-8.301
1790598806.472656,-10.742,-42.969,-52.734,-25.879
1790598806.477751,-61.035,-33.691,-39.551,-46.387
1790598806.481517,-41.504,-23.926,-35.156,-32.227
1790598806.485284,10.742,-22.949,-34.180,-5.371
1790598806.489051,4.883,-23.438,-25.391,-8.301
1790598806.492818,-68.848,-30.273,-30.273,-54.199
1790598806.496585,-73.242,-41.992,-41.992,-46.387
1790598806.500352,-4.395,-44.434,-45.898,-5.859
1790598806.504118,13.184,-48.340,-49.316,-12.695
1790598806.507885,-54.199,-50.293,-56.152,-65.430
1790598806.511652,-82.031,-42.969,-61.035,-70.801
1790598806.515419,-41.992,-45.898,-42.969,-27.832
1790598806.519186,9.277,-49.805,-37.598,2.441
1790598806.524252,-44.922,-58.594,-60.059,-39.062
1790598806.528022,-102.051,-60.547,-68.359,-92.773
1790598806.531791,-60.547,-58.105,-61.035,-75.195
1790598806.535561,-6.348,-59.082,-63.477,-38.574
1790598806.539330,-18.066,-55.664,-63.965,-41.504
1790598806.543100,-77.637,-52.734,-70.312,-52.734
1790598806.546869,-76.172,-49.805,-80.566,-32.715
1790598806.550639,-9.277,-47.852,-65.430,-7.812
1790598806.554408,-4.395,-50.781,-56.641,-43.457
1790598806.558178,-84.961,-59.570,-64.453,-94.238
1790598806.561947,-86.914,-51.758,-58.105,-75.195
1790598806.565717,-16.113,-40.039,-48.340,-29.785
1790598806.571538,10.742,-37.109,-49.316,-13.184
1790598806.575312,-54.199,-37.109,-55.664,-49.805
1790598806.579086,-83.496,-36.133,-57.617,-63.477
1790598806.582859,-31.250,-38.086,-54.688,-33.691
1790598806.586632,20.020,-38.086,-53.711,-4.395
1790598806.590406,-23.438,-38.574,-59.570,-36.621
1790598806.594180,-85.449,-46.387,-59.082,-84.473
1790598806.597953,-44.434,-40.039,-48.828,-50.781
1790598806.601727,20.508,-37.109,-51.758,-6.348
1790598806.605500,-9.277,-48.340,-60.547,-25.879
1790598806.609274,-88.379,-42.480,-52.246,-58.594
1790598806.613048,-82.520,-36.133,-44.434,-40.527
1790598806.618611,0.488,-40.527,-45.410,-22.949
1790598806.622388,8.789,-43.945,-50.781,-42.480
1790598806.626165,-79.102,-41.504,-61.523,-82.031
1790598806.629942,-86.426,-43.945,-67.383,-79.590
1790598806.633719,-3.418,-39.062,-56.641,-8.789
1790598806.637496,17.090,-33.691,-57.617,15.137
1790598806.641273,-83.496,-46.387,-59.082,-36.133
1790598806.645050,-127.441,-46.387,-53.223,-75.195
1790598806.648827,-63.477,-35.645,-50.293,-51.758
1790598806.652604,4.883,-35.156,-46.875,-4.395
1790598806.656381,-30.273,-44.922,-59.082,-44.922
1790598806.660158,-102.051,-54.688,-72.266,-81.543
1790598806.665671,-74.707,-46.387,-62.012,-47.852
1790598806.669451,-3.906,-40.527,-49.316,0.977
1790598806.673232,-14.160,-50.781,-53.711,-21.484
1790598806.677012,-81.055,-55.176,-60.059,-69.824
1790598806.680792,-76.172,-46.387,-57.617,-74.219
1790598806.684573,-8.789,-40.039,-53.223,-17.578
1790598806.688353,12.207,-42.969,-50.781,7.812
1790598806.692133,-48.828,-39.551,-55.664,-73.242
1790598806.695914,-77.148,-26.855,-56.641,-81.543
1790598806.699694,-18.066,-25.391,-47.363,-32.715
1790598806.703474,35.156,-30.762,-45.410,-0.977
1790598806.707255,-31.250,-27.344,-54.688,-32.227
1790598806.712633,-87.402,-22.461,-51.270,-48.828
1790598806.716417,-40.039,-24.902,-43.457,19.531
1790598806.720200,22.461,-29.785,-48.828,33.203
1790598806.723983,-10.742,-34.668,-56.641,-43.945
1790598806.727766,-78.613,-28.809,-57.617,-72.266
1790598806.731550,-56.152,-22.461,-55.664,-40.039
1790598806.735333,-2.441,-31.738,-56.641,-11.230
1790598806.739116,-11.719,-41.016,-64.453,-0.977
1790598806.742899,-46.387,-35.156,-58.594,-19.043
1790598806.746683,-54.688,-24.414,-50.781,-26.855
1790598806.750466,-22.949,-22.461,-52.734,-11.719
1790598806.754249,4.883,-21.484,-57.617,-28.320
1790598806.759400,-64.453,-19.531,-66.406,-57.617
1790598806.763186,-78.125,-19.531,-72.266,-66.406
1790598806.766971,-10.254,-20.508,-73.730,-28.320
1790598806.770757,29.785,-22.461,-71.777,-5.371
1790598806.774543,-23.926,-23.438,-81.543,-58.105
1790598806.778329,-73.242,-17.090,-84.473,-65.918
1790598806.782115,-45.410,-18.555,-80.078,-38.086
1790598806.785900,9.277,-24.414,-80.078,-21.973
1790598806.789686,-4.395,-18.066,-72.754,-14.160
1790598806.793472,-73.242,-11.230,-67.383,-49.316
1790598806.797257,-63.965,-10.742,-70.312,-62.012
1790598806.801043,8.789,-18.555,-70.801,-20.508
1790598806.806243,17.090,-26.367,-66.406,-21.484
1790598806.810031,-68.848,-38.574,-63.965,-56.641
1790598806.813819,-88.867,-40.039,-68.359,-52.246
1790598806.817607,-14.160,-29.297,-66.895,-26.855
1790598806.821396,28.320,-24.414,-54.688,-6.348
1790598806.825184,-48.828,-30.273,-62.500,-47.852
1790598806.828972,-105.469,-40.039,-73.242,-69.824
1790598806.832760,-55.664,-40.039,-70.801,-21.484
1790598806.836549,15.137,-39.551,-60.059,-17.578
1790598806.840337,-20.020,-36.133,-61.523,-43.457
1790598806.844125,-83.496,-28.809,-71.289,-56.641
1790598806.847914,-63.477,-33.691,-70.801,-38.574
1790598806.852952,5.859,-41.992,-65.430,-2.441
1790598806.856742,-9.277,-52.734,-71.777,-8.789
1790598806.860533,-70.312,-49.805,-79.590,-57.129
1790598806.864323,-69.824,-36.621,-65.430,-70.312
1790598806.868114,-20.508,-31.738,-48.828,-39.062
1790598806.871904,7.812,-24.414,-42.480,-18.555
1790598806.875695,-61.035,-29.785,-54.199,-47.363
1790598806.879485,-80.566,-34.180,-63.477,-50.293
1790598806.883275,-27.832,-39.551,-53.223,-21.484
1790598806.887066,17.090,-45.898,-56.641,-18.555
1790598806.890856,-27.832,-41.992,-71.777,-25.879
1790598806.894647,-76.660,-40.039,-77.148,-37.109
1790598806.899497,-28.809,-38.574,-66.406,-40.039
1790598806.903290,45.410,-25.391,-57.617,-5.859
1790598806.907082,7.812,-20.020,-63.477,-21.973
1790598806.910874,-63.477,-29.297,-68.848,-59.082
1790598806.914666,-52.734,-33.203,-67.871,-43.945
1790598806.918458,9.766,-31.250,-65.430,-3.906
1790598806.922251,22.461,-26.855,-64.453,-4.395
1790598806.926043,-56.152,-27.344,-58.594,-47.363
1790598806.929835,-82.031,-40.527,-61.035,-40.527
1790598806.933627,-19.043,-47.363,-65.430,2.930
1790598806.937420,2.441,-45.410,-63.477,-2.930
1790598806.941212,-55.176,-45.898,-59.082,-47.852
1790598806.946753,-68.359,-48.340,-45.898,-33.691
1790598806.950548,-23.438,-43.457,-43.945,10.254
1790598806.954343,20.996,-38.086,-52.246,-9.277
1790598806.958138,-33.691,-39.062,-51.270,-51.758
1790598806.961933,-71.777,-35.156,-49.316,-46.387
1790598806.965729,-26.367,-27.344,-55.176,-33.691
1790598806.969524,25.879,-33.203,-48.828,-1.953
1790598806.973319,9.766,-44.434,-45.410,-12.695
1790598806.977114,-70.801,-42.480,-55.176,-67.871
1790598806.980909,-77.637,-39.062,-55.176,-55.176
1790598806.984704,8.789,-34.180,-44.922,-6.348
1790598806.988499,22.461,-33.691,-47.363,-10.742
1790598806.993890,-60.059,-40.527,-51.270,-48.828
1790598806.997688,-56.641,-36.133,-38.086,-33.691
1790598807.001486,14.648,-22.949,-40.527,-3.418
1790598807.005283,29.297,-19.043,-60.059,-1.465
1790598807.009081,-60.547,-22.949,-77.637,-60.059
1790598807.012879,-91.797,-20.996,-77.148,-79.102
1790598807.016677,-31.250,-13.672,-68.848,-53.223
1790598807.020474,8.301,-16.602,-74.707,-42.969
1790598807.024272,-33.691,-23.438,-89.844,-32.227
1790598807.028070,-102.051,-20.020,-98.145,-59.570
1790598807.031868,-67.871,-11.719,-89.844,-87.891
1790598807.035666,11.230,-6.836,-85.938,-48.828
1790598807.040849,-18.066,-1.953,-92.285,-13.672
1790598807.044649,-75.684,-1.465,-97.656,-58.594
1790598807.048449,-50.293,-2.930,-94.238,-56.641
1790598807.052248,20.996,-2.930,-83.008,21.484
1790598807.056049,39.551,-0.977,-83.496,-1.953
1790598807.059849,-29.297,0.977,-91.309,-76.172
1790598807.063648,-55.176,-3.418,-89.844,-90.332
1790598807.067448,-3.418,-12.695,-78.613,-48.828
1790598807.071249,24.414,-23.926,-79.102,-27.832
1790598807.075048,-30.273,-22.461,-91.309,-65.430
1790598807.078848,-71.289,-18.066,-87.402,-87.891
1790598807.082648,-22.949,-24.902,-79.590,-41.504
1790598807.087744,0.000,-24.414,-78.125,3.418
1790598807.091546,0.000,-24.902,-86.914,-39.062
1790598807.095348,0.000,-24.902,-91.309,-65.918
1790598807.099150,0.000,-20.020,-81.543,-41.016
1790598807.102952,0.000,-18.555,-72.754,-13.672
1790598807.106754,0.000,-20.508,-65.918,-15.625
1790598807.110556,0.000,-29.297,-63.477,-54.199
1790598807.114358,0.000,-28.320,-73.242,-48.340
1790598807.118160,0.000,-26.855,-68.359,3.906
1790598807.121962,0.000,-30.762,-58.105,10.742
1790598807.125764,0.000,-30.273,-65.430,-41.016
1790598807.129566,0.000,-37.598,-69.824,-59.570
1790598807.134634,-24.414,-39.551,-64.453,-27.832
1790598807.138438,33.203,-31.738,-61.035,2.441
1790598807.142242,-35.156,-23.926,-71.289,-20.508
1790598807.146046,-93.750,-33.203,-76.172,-72.266
1790598807.149850,-47.363,-48.828,-65.430,-41.992
1790598807.153654,19.043,-45.898,-56.641,11.230
1790598807.157458,-4.883,-36.621,-56.641,-30.273
1790598807.161262,-66.406,-30.273,-55.176,-69.824
1790598807.165066,-48.828,-30.762,-56.152,-46.387
1790598807.168869,13.672,-25.879,-57.129,-1.953
1790598807.172673,27.832,-29.785,-63.477,-0.977
1790598807.176477,-39.551,-33.691,-63.965,-33.203
1790598807.181451,-73.730,-23.438,-56.641,-52.734
1790598807.185257,-11.230,-17.090,-56.641,-27.832
1790598807.189062,18.066,-19.531,-52.246,36.133
1790598807.192868,-55.664,-33.203,-56.152,-13.184
1790598807.196674,-84.961,-44.434,-60.547,-82.031
1790598807.200480,-28.809,-38.574,-56.641,-41.016
1790598807.204285,26.367,-30.762,-58.594,4.395
1790598807.208091,-16.602,-34.668,-50.293,-23.438
1790598807.211897,-68.359,-30.762,-44.922,-51.270
1790598807.215703,-31.738,-22.949,-50.293,-26.367
1790598807.219508,41.504,-24.902,-45.898,12.695
1790598807.223314,6.348,-31.738,-50.293,-9.277
1790598807.228218,-79.102,-41.016,-62.988,-62.988
1790598807.232026,-73.730,-47.852,-67.871,-39.551
1790598807.235833,-6.836,-48.340,-63.965,-9.766
1790598807.239640,-0.488,-46.387,-63.477,2.930
1790598807.243448,-72.266,-43.457,-52.734,-37.598
1790598807.247255,-82.031,-49.805,-50.781,-79.102
1790598807.251063,-10.742,-43.945,-57.129,-17.578
1790598807.254870,31.250,-31.738,-58.594,0.977
1790598807.258677,-55.176,-43.457,-63.965,-52.246
1790598807.262485,-91.797,-37.598,-63.477,-53.711
1790598807.266292,-35.156,-28.809,-53.711,-23.926
1790598807.270099,22.949,-33.691,-50.781,-20.508
1790598807.274898,-16.113,-33.691,-61.035,-38.574
1790598807.278706,-71.777,-35.156,-72.754,-60.059
1790598807.282515,-52.734,-33.691,-70.801,-38.086
1790598807.286324,-1.953,-35.645,-61.035,-5.859
1790598807.290133,-14.160,-34.180,-61.523,-32.227
1790598807.293941,-80.566,-38.086,-62.988,-56.152
1790598807.297750,-75.684,-37.598,-67.383,-47.363
1790598807.301559,-3.418,-26.367,-62.988,-7.324
1790598807.305368,22.461,-23.438,-60.059,3.906
1790598807.309177,-55.176,-26.367,-68.848,-55.664
1790598807.312986,-73.730,-33.691,-66.406,-71.777
1790598807.316794,-12.695,-41.016,-60.059,-29.297
1790598807.322095,30.762,-42.480,-64.941,-4.395
1790598807.325907,-31.738,-42.969,-62.500,-43.945
1790598807.329717,-78.613,-32.715,-55.664,-57.129
1790598807.333528,-34.668,-36.133,-54.199,-32.227
1790598807.337339,10.254,-46.875,-52.246,-1.953
1790598807.341150,-22.461,-33.203,-54.688,-1.465
1790598807.344961,-62.500,-12.695,-48.340,-24.902
1790598807.348772,-31.738,-8.301,-43.457,-17.578
1790598807.352583,29.785,-17.578,-46.387,13.672
1790598807.356394,12.207,-23.926,-51.758,7.324
1790598807.360205,-63.477,-27.344,-47.363,-51.270
1790598807.364016,-68.848,-34.668,-49.805,-55.664
1790598807.369239,-9.277,-37.598,-54.199,-11.230
1790598807.373052,17.090,-40.527,-51.758,-10.742
1790598807.376865,-55.664,-43.945,-55.664,-51.270
1790598807.380678,-84.961,-40.039,-65.430,-61.523
1790598807.384491,-31.738,-36.621,-70.801,-36.621
1790598807.388304,22.461,-38.086,-67.871,-8.789
1790598807.392117,-35.156,-36.621,-69.336,-41.992
1790598807.395930,-101.074,-34.668,-67.383,-64.453
1790598807.399743,-44.434,-34.180,-63.477,-23.926
1790598807.403556,19.043,-25.391,-50.781,11.719
1790598807.407369,-23.438,-24.414,-43.945,-0.488
1790598807.411182,-87.891,-30.762,-57.617,-24.414
1790598807.416233,-77.148,-23.438,-58.105,-39.551
1790598807.420047,7.812,-22.461,-46.387,-18.066
1790598807.423862,20.020,-25.879,-45.898,-6.348
1790598807.427677,-59.570,-21.484,-47.852,-44.434
1790598807.431491,-73.730,-24.414,-44.922,-28.809
1790598807.435306,-16.602,-26.855,-49.316,1.953
1790598807.439121,21.484,-22.461,-62.012,-5.371
1790598807.442935,-44.434,-26.367,-62.988,-39.551
1790598807.446750,-94.727,-34.668,-61.523,-38.574
1790598807.450565,-48.828,-30.762,-50.293,-14.160
1790598807.454379,16.113,-22.461,-32.715,20.020
1790598807.458194,-21.484,-21.484,-41.992,-9.277
1790598807.463145,0.000,-22.949,-47.363,-72.266
1790598807.466961,0.000,-24.414,-45.410,-36.621
1790598807.470777,0.000,-19.531,-49.805,-0.488
1790598807.474594,0.000,-23.926,-48.828,-21.973
1790598807.478410,0.000,-35.156,-49.805,-44.434
1790598807.482226,0.000,-36.133,-53.711,-51.758
1790598807.486042,0.000,-41.992,-44.922,-17.578
1790598807.489858,0.000,-46.875,-44.922,3.418
1790598807.493675,0.000,-45.898,-55.176,-43.457
1790598807.497491,0.000,-41.016,-47.363,-57.617
1790598807.501307,0.000,-30.273,-43.945,-11.230
1790598807.505123,0.000,-21.484,-47.852,7.812
1790598807.509973,-52.246,-26.367,-52.734,-26.367
1790598807.513790,-99.609,-34.180,-52.734,-36.133
1790598807.517608,-55.664,-37.598,-56.152,-22.461
1790598807.521425,8.301,-43.945,-59.082,-38.574
1790598807.525243,-26.855,-40.039,-59.082,-67.383
1790598807.529061,-81.543,-36.133,-54.688,-72.754
1790598807.532878,-57.617,-35.645,-40.527,-44.434
1790598807.536696,0.977,-35.156,-40.039,-18.555
1790598807.540514,-2.441,-32.227,-48.828,-26.855
1790598807.544331,-81.055,-31.738,-53.223,-44.434
1790598807.548149,-73.730,-34.180,-48.340,-42.480
1790598807.551966,-2.441,-29.297,-31.738,-5.371
1790598807.556776,16.602,-35.645,-29.297,1.465
1790598807.560595,-54.199,-46.387,-34.668,-26.855
1790598807.564414,-81.543,-42.480,-33.691,-34.180
1790598807.568233,-25.879,-36.133,-35.156,-34.180
1790598807.572052,10.742,-39.551,-34.180,-20.020
1790598807.575871,-44.922,-40.527,-46.875,-40.527
1790598807.579690,-77.148,-43.945,-52.734,-61.523
1790598807.583509,-43.945,-42.969,-35.645,-36.133
1790598807.587328,3.418,-38.086,-33.203,-7.324
1790598807.591146,-12.207,-40.039,-46.387,-10.254
1790598807.594965,-74.707,-33.691,-50.293,-22.461
1790598807.598784,-68.359,-28.809,-42.969,-38.574
1790598807.603565,5.371,-27.832,-38.086,-14.648
1790598807.607386,15.137,-27.832,-36.621,-2.930
1790598807.611206,-70.801,-36.133,-31.250,-54.688
1790598807.615026,-75.195,-41.016,-27.344,-50.781
1790598807.618846,10.254,-31.738,-20.020,-12.207
1790598807.622666,36.133,-21.484,-12.207,-17.090
1790598807.626487,-41.504,-21.484,-14.648,-7.324
1790598807.630307,-70.312,-28.809,-31.250,-11.230
1790598807.634127,-20.020,-41.016,-20.020,-41.992
1790598807.637947,16.602,-46.387,1.953,-8.301
1790598807.641768,-45.410,-45.898,3.906,-68.848
1790598807.645588,-89.355,-48.828,5.859,-93.750
1790598807.650195,-66.406,-48.340,21.973,-66.406
1790598807.654016,-2.441,-50.293,36.133,-25.879
1790598807.657837,-14.648,-49.316,36.133,-18.066
1790598807.661658,-88.867,-49.316,35.645,-48.340
1790598807.665479,-72.754,-57.129,28.320,-38.574
1790598807.669301,-8.301,-57.129,28.809,6.348
1790598807.673122,-6.836,-54.688,36.621,16.113
1790598807.676943,-88.379,-62.012,40.039,-50.293
1790598807.680764,-109.375,-70.801,35.156,-66.406
1790598807.684585,-31.250,-63.477,29.785,-1.465
1790598807.688406,17.090,-59.082,24.902,26.855
1790598807.692228,-39.062,-65.430,14.160,-22.949
1790598807.697425,-72.266,-65.918,5.371,-48.340
1790598807.701248,-34.180,-58.105,-2.441,-23.926
1790598807.705071,18.066,-56.641,-2.930,2.930
1790598807.708894,-31.250,-70.312,3.906,-20.020
1790598807.712717,-89.355,-72.266,9.277,-30.762
1790598807.716540,-57.617,-54.688,8.301,11.230
1790598807.720363,2.930,-49.805,-2.930,13.672
1790598807.724186,-4.395,-56.152,-17.578,-34.180
1790598807.728009,-83.008,-62.500,-28.809,-53.223
1790598807.731832,-89.844,-64.453,-24.414,-25.879
1790598807.735655,-20.508,-62.988,-11.230,-4.883
1790598807.739478,5.371,-58.594,-20.508,-11.719
1790598807.744461,-62.988,-56.152,-37.109,-32.715
1790598807.748286,-74.707,-49.316,-23.926,-28.320
1790598807.752110,-11.230,-45.410,-9.277,20.020
1790598807.755934,28.809,-49.316,-24.414,21.973
1790598807.759759,-29.297,-47.363,-31.250,-34.180
1790598807.763583,-83.496,-48.340,-30.762,-42.480
1790598807.767407,-48.340,-53.711,-36.133,-13.184
1790598807.771232,13.672,-55.176,-32.715,-7.324
1790598807.775056,-15.625,-55.664,-33.691,-18.555
1790598807.778881,-83.496,-46.875,-29.297,-22.461
1790598807.782705,-65.918,-38.574,-15.137,-35.645
1790598807.786529,14.160,-38.574,-19.043,-25.391
1790598807.791459,12.207,-40.527,-33.203,-10.254
1790598807.795284,-71.777,-44.922,-43.457,-41.992
1790598807.799110,-77.637,-41.504,-40.039,-41.504
1790598807.802936,-8.301,-40.527,-25.391,-11.719
1790598807.806762,13.184,-40.527,-32.715,-15.625
1790598807.810587,-66.895,-41.504,-49.316,-57.617
1790598807.814413,-99.121,-47.852,-61.523,-64.941
1790598807.818239,-37.109,-50.293,-71.777,-26.855
1790598807.822064,15.625,-44.922,-63.477,2.441
1790598807.825890,-38.574,-43.945,-46.387,-20.996
1790598807.829716,-103.027,-47.852,-45.410,-58.105
1790598807.833542,-60.059,-46.387,-52.734,-65.918
1790598807.838433,8.301,-44.434,-44.922,-19.043
1790598807.842260,-33.691,-49.805,-41.992,-31.250
1790598807.846087,-102.051,-49.316,-57.617,-86.426
1790598807.849914,-82.520,-44.922,-60.547,-59.570
1790598807.853741,-4.883,-46.875,-48.340,-19.531
1790598807.857568,4.883,-55.176,-57.129,-28.320
1790598807.861395,-75.195,-55.664,-73.730,-57.617
1790598807.865222,-97.656,-42.969,-72.266,-45.898
1790598807.869049,-24.414,-27.832,-67.871,-16.602
1790598807.872876,12.695,-31.738,-67.871,-9.277
1790598807.876703,-58.594,-43.945,-71.289,-58.105
1790598807.880530,-100.586,-51.270,-77.148,-81.543
1790598807.885344,-54.199,-57.617,-67.383,-55.176
1790598807.889172,7.812,-50.781,-58.105,-31.250
1790598807.893000,-19.531,-46.875,-69.336,-20.508
1790598807.896828,-71.777,-41.504,-66.406,-80.566
1790598807.900657,-40.039,-34.668,-47.852,-64.453
1790598807.904485,20.996,-37.598,-41.504,14.648
1790598807.908313,7.812,-39.062,-50.781,-4.883
1790598807.912141,-42.480,-41.992,-54.199,-26.855
1790598807.915969,-47.852,-34.180,-51.270,-47.363
1790598807.919798,2.930,-26.367,-59.570,-58.594
1790598807.923626,19.043,-23.438,-64.941,-37.598
1790598807.927454,-62.988,-23.438,-75.684,-59.570
1790598807.932158,-85.938,-24.902,-81.055,-52.246
1790598807.935987,-17.578,-23.926,-74.219,-31.250
1790598807.939816,31.738,-20.996,-83.984,-5.859
1790598807.943645,-32.227,-25.879,-99.121,-34.180
1790598807.947474,-77.148,-29.297,-92.285,-69.336
1790598807.951304,-31.738,-29.297,-83.008,-40.039
1790598807.955133,32.227,-42.969,-87.891,-6.836
1790598807.958962,-12.695,-52.734,-99.609,-27.832
1790598807.962791,-99.609,-48.340,-100.586,-68.359
1790598807.966621,-75.684,-38.574,-98.633,-31.738
1790598807.970450,16.113,-28.809,-90.332,4.883
1790598807.974279,28.320,-28.809,-81.055,-31.250
1790598807.978926,-55.176,-37.598,-83.984,-73.730
1790598807.982756,-67.383,-39.551,-89.844,-56.641
1790598807.986586,10.742,-30.762,-85.449,-7.324
1790598807.990417,31.250,-29.785,-80.566,1.465
1790598807.994246,-39.062,-38.574,-93.750,-25.879
1790598807.998077,-70.312,-41.016,-95.703,-60.547
1790598808.001907,-23.438,-38.574,-87.891,-26.367
1790598808.005737,17.578,-28.320,-82.031,11.230
1790598808.009567,-43.945,-29.785,-78.125,-25.879
1790598808.013397,-85.938,-33.691,-72.754,-59.082
1790598808.017228,-40.527,-27.344,-68.359,-41.016
1790598808.021058,29.297,-26.367,-67.871,2.930
1790598808.025658,-2.930,-30.762,-71.289,-33.203
1790598808.029489,-68.359,-26.367,-59.570,-41.992
1790598808.033320,-44.922,-15.137,-53.223,-14.648
1790598808.037151,22.949,-11.230,-54.688,0.977
1790598808.040982,20.996,-24.902,-49.805,-0.488
1790598808.044813,-56.641,-34.180,-50.293,-35.645
1790598808.048644,-70.312,-21.973,-51.270,-50.781
1790598808.052475,-7.812,-10.742,-46.387,-9.766
1790598808.056306,23.926,-10.254,-56.152,7.324
1790598808.060137,-43.945,-12.695,-73.242,-33.203
1790598808.063968,-67.871,-11.719,-63.477,-18.066
1790598808.067799,-4.883,-16.113,-51.270,-0.977
1790598808.072248,38.086,-26.855,-58.594,13.184
1790598808.076080,-30.762,-27.344,-59.570,-12.695
1790598808.079912,-81.543,-17.090,-49.805,-47.852
1790598808.083743,-42.480,-15.625,-53.223,-13.672
1790598808.087575,23.438,-19.043,-62.500,8.789
1790598808.091407,-0.488,-26.855,-69.336,-20.020
1790598808.095239,-59.570,-22.461,-57.129,-29.785
1790598808.099070,-59.570,-23.926,-53.711,-17.090
1790598808.102902,-20.020,-41.016,-70.801,-39.062
1790598808.106734,-3.906,-42.969,-82.031,-41.992
1790598808.110566,-72.266,-41.504,-81.055,-69.336
1790598808.114397,-89.355,-40.039,-67.871,-69.336
1790598808.119351,-23.438,-37.598,-66.406,-40.039
1790598808.123183,25.879,-40.527,-83.496,-25.879
1790598808.127017,-45.410,-47.363,-88.379,-32.715
1790598808.130850,-111.816,-47.852,-82.031,-52.734
1790598808.134682,-48.828,-41.992,-74.219,-29.785
1790598808.138515,25.391,-42.969,-53.223,5.371
1790598808.142349,-38.574,-47.852,-30.762,-22.949
1790598808.146181,-114.258,-44.434,-26.855,-71.777
1790598808.150014,-76.660,-48.340,-36.133,-36.133
1790598808.153847,9.766,-45.410,-32.715,10.254
1790598808.157681,-16.113,-35.645,-30.762,-66.895
1790598808.161513,-102.051,-47.363,-42.480,-95.703
1790598808.166392,-83.496,-61.523,-42.480,-56.152
1790598808.170226,-23.926,-65.918,-28.809,-23.926
1790598808.174060,-11.719,-68.848,-17.578,-10.254
1790598808.177894,-62.012,-59.082,-27.344,-50.293
1790598808.181728,-79.590,-50.781,-44.434,-89.355
1790598808.185563,-25.879,-49.805,-42.969,-44.922
1790598808.189397,13.184,-56.152,-45.898,-9.277
1790598808.193231,-53.711,-62.500,-48.340,-28.320
1790598808.197065,-98.145,-58.105,-50.293,-52.246
1790598808.200899,-49.805,-51.758,-41.016,-29.785
1790598808.204733,18.066,-50.293,-30.273,9.277
1790598808.208567,-12.207,-46.875,-46.875,-1.953
1790598808.213331,0.000,-50.293,-55.664,-41.016
1790598808.217166,0.000,-54.199,-44.922,-45.898
1790598808.221001,0.000,-55.664,-47.363,-25.391
1790598808.224836,0.000,-68.848,-75.684,-26.855
1790598808.228672,0.000,-64.941,-83.008,-73.242
1790598808.232507,0.000,-61.035,-77.148,-73.242
1790598808.236342,0.000,-67.871,-69.824,-20.020
1790598808.240177,0.000,-62.012,-67.383,-5.859
1790598808.244012,0.000,-53.711,-76.172,-29.785
1790598808.247847,0.000,-55.664,-71.289,-40.527
1790598808.251682,0.000,-47.363,-68.359,-40.039
1790598808.255517,0.000,-43.457,-78.613,-10.254
1790598808.260176,-38.574,-46.875,-80.566,-32.715
1790598808.264012,-100.098,-44.434,-88.379,-44.922
1790598808.267848,-51.270,-43.945,-102.051,-0.977
1790598808.271684,10.254,-43.457,-94.727,-4.883
1790598808.275520,-19.043,-46.875,-87.891,-48.828
1790598808.279356,-82.031,-53.223,-91.309,-70.312
1790598808.283192,-75.684,-54.688,-96.191,-51.758
1790598808.287028,-4.883,-48.828,-92.285,-16.602
1790598808.290864,0.977,-51.270,-98.633,-5.859
1790598808.294700,-72.754,-59.082,-114.746,-56.641
1790598808.298536,-70.801,-54.199,-120.117,-56.641
1790598808.302372,-12.207,-45.898,-114.746,-3.418
1790598808.307017,10.742,-43.457,-111.328,0.488
1790598808.310854,-59.082,-52.734,-117.188,-62.012
1790598808.314691,-83.496,-55.664,-116.211,-82.031
1790598808.318528,-36.133,-52.734,-104.004,-27.344
1790598808.322365,8.301,-51.758,-91.797,-11.230
1790598808.326202,-30.273,-50.293,-95.215,-45.410
1790598808.330039,-92.285,-48.340,-103.027,-53.711
1790598808.333875,-61.523,-47.363,-104.980,-30.762
1790598808.337712,-9.277,-53.223,-97.168,-29.297
1790598808.341549,-20.508,-45.410,-84.473,-16.113
1790598808.345386,-85.938,-40.039,-85.449,-22.461
1790598808.349223,-77.148,-43.945,-87.402,-53.223
1790598808.353771,-2.441,-40.527,-82.031,-32.227
1790598808.357609,6.836,-49.805,-83.984,-25.391
1790598808.361447,-66.895,-54.199,-88.379,-60.547
1790598808.365284,-76.172,-39.551,-91.797,-57.617
1790598808.369122,1.465,-30.273,-83.008,4.883
1790598808.372959,35.645,-27.344,-74.219,14.160
1790598808.376797,-31.738,-31.738,-71.777,-12.695
1790598808.380635,-85.449,-44.434,-71.289,-38.574
1790598808.384472,-52.734,-51.270,-73.242,-48.828
1790598808.388310,19.531,-47.363,-77.637,-14.648
1790598808.392148,-12.695,-43.457,-77.637,-39.551
1790598808.395985,-84.961,-42.969,-73.730,-68.848
1790598808.400610,-43.457,-32.715,-74.219,-40.527
1790598808.404448,22.949,-33.203,-79.590,-1.953
1790598808.408287,15.137,-30.273,-75.684,-8.301
1790598808.412125,-44.922,-18.066,-68.359,-23.438
1790598808.415963,-61.523,-24.902,-70.312,-25.879
1790598808.419802,-2.930,-36.133,-81.055,-13.184
1790598808.423640,35.645,-41.016,-81.543,-2.930
1790598808.427479,-46.387,-31.738,-70.312,-42.480
1790598808.431317,-96.191,-27.344,-80.078,-72.754
1790598808.435155,-35.645,-32.715,-95.215,-51.758
1790598808.438994,23.438,-27.344,-100.586,-20.508
1790598808.442832,-35.156,-16.602,-104.004,-44.434
1790598808.447230,-95.215,-24.902,-112.305,-73.730
1790598808.451069,-55.176,-38.574,-107.422,-32.227
1790598808.454908,14.160,-34.668,-102.539,0.000
1790598808.458747,-9.277,-27.344,-105.469,-62.988
1790598808.462586,-89.844,-28.320,-102.051,-89.844
1790598808.466425,-73.242,-29.297,-100.586,-59.570
1790598808.470264,2.930,-30.762,-103.516,-36.133
1790598808.474103,-4.395,-32.227,-102.051,-28.320
1790598808.477942,-74.707,-29.785,-92.773,-62.500
1790598808.481781,-77.637,-25.391,-85.938,-39.062
1790598808.485620,-9.766,-21.484,-83.008,0.488
1790598808.489459,24.902,-25.879,-93.262,-18.066
1790598808.494333,-52.734,-30.273,-120.117,-63.965
1790598808.498173,-93.262,-38.574,-112.305,-62.012
1790598808.502013,-31.738,-35.156,-92.285,-30.273
1790598808.505853,32.227,-26.855,-90.332,-25.879
1790598808.509693,-21.973,-27.344,-85.938,-41.016
1790598808.513533,-90.820,-25.391,-83.496,-57.617
1790598808.517373,-46.875,-16.113,-82.031,-39.551
1790598808.521213,38.086,-11.719,-75.684,-3.418
1790598808.525053,1.953,-20.020,-86.914,-14.648
1790598808.528893,-89.844,-27.832,-101.562,-53.223
1790598808.532733,-92.285,-40.527,-95.703,-59.570
1790598808.536573,-12.695,-48.828,-93.262,-44.922
1790598808.541359,15.625,-42.480,-97.656,-24.902
1790598808.545200,-63.477,-34.668,-99.609,-40.039
1790598808.549041,-91.797,-35.645,-94.727,-62.500
1790598808.552882,-28.809,-38.086,-82.520,-46.875
1790598808.556723,10.254,-36.133,-74.707,-32.227
1790598808.560564,-55.176,-29.297,-74.707,-46.387
1790598808.564405,-86.426,-24.414,-72.266,-38.574
1790598808.568246,-30.762,-30.273,-77.148,-25.391
1790598808.572087,24.902,-31.738,-79.590,17.578
1790598808.575928,-31.738,-34.180,-85.938,-15.625
1790598808.579769,-105.469,-44.434,-93.750,-92.773
1790598808.583610,-75.195,-43.945,-89.355,-63.477
1790598808.588280,-0.488,-42.969,-82.031,-5.371
1790598808.592122,-5.371,-41.504,-86.426,-10.742
1790598808.595964,-73.242,-34.180,-90.332,-63.477
1790598808.599806,-78.125,-32.715,-87.891,-60.059
1790598808.603647,-11.719,-35.645,-88.867,-14.160
1790598808.607489,7.812,-39.551,-88.379,-20.020
1790598808.611331,-76.660,-49.316,-98.633,-75.684
1790598808.615173,-82.520,-41.504,-105.469,-47.852
1790598808.619015,-15.137,-32.715,-86.426,13.672
1790598808.622856,5.859,-36.621,-74.219,-9.766
1790598808.626698,-51.270,-41.016,-84.473,-45.410
1790598808.630540,-86.914,-43.457,-88.379,-55.664
1790598808.635193,-45.410,-41.504,-75.684,-40.039
1790598808.639036,18.555,-41.992,-67.383,-14.648
1790598808.642878,-2.930,-34.668,-76.660,-14.648
1790598808.646721,-72.266,-30.762,-86.426,-42.480
1790598808.650563,-57.129,-34.668,-77.148,-47.363
1790598808.654406,8.789,-29.785,-67.871,-5.371
1790598808.658248,-14.160,-41.992,-80.566,8.301
1790598808.662091,-85.938,-48.828,-88.867,-39.551
1790598808.665934,-81.055,-42.969,-78.125,-64.453
1790598808.669776,-24.414,-46.875,-66.406,-32.227
1790598808.673619,4.395,-46.875,-67.383,-20.996
1790598808.677461,-59.570,-49.316,-82.031,-49.316
1790598808.682095,-100.586,-41.016,-79.590,-59.570
1790598808.685939,-39.062,-25.879,-66.895,-39.062
1790598808.689782,25.391,-24.902,-63.477,0.488
1790598808.693625,-31.250,-24.902,-70.312,-8.789
1790598808.697469,-77.637,-20.020,-69.824,-44.434
1790598808.701312,-46.387,-16.602,-64.453,-43.457
1790598808.705155,-2.441,-17.090,-69.336,-16.602
1790598808.708998,-32.715,-22.461,-86.426,-39.062
1790598808.712842,-92.285,-27.344,-85.938,-78.125
1790598808.716685,-72.266,-30.273,-79.590,-59.082
1790598808.720529,-0.977,-33.203,-83.984,-14.160
1790598808.724372,4.883,-41.992,-88.867,-10.254
1790598808.728890,-82.031,-45.410,-95.703,-50.781
1790598808.732734,-94.238,-44.922,-104.492,-47.852
1790598808.736578,-21.973,-44.922,-100.098,-19.043
1790598808.740422,16.602,-42.480,-93.750,-34.180
1790598808.744266,-49.805,-39.062,-102.051,-54.688
1790598808.748110,-82.520,-35.645,-98.633,-54.688
1790598808.751954,-22.461,-36.133,-96.191,-26.367
1790598808.755798,28.809,-40.527,-96.191,17.090
1790598808.759642,-26.367,-40.039,-101.074,-18.555
1790598808.763486,-79.590,-38.086,-107.910,-59.082
1790598808.767330,-39.551,-39.062,-99.121,-37.109
1790598808.771174,29.297,-35.156,-93.262,-10.742
1790598808.775603,-6.836,-38.574,-93.262,-24.414
1790598808.779448,-84.473,-41.016,-101.074,-59.570
1790598808.783292,-76.172,-30.762,-94.727,-40.527
1790598808.787137,-11.230,-28.320,-75.195,-12.695
1790598808.790981,4.395,-27.344,-78.125,-37.598
1790598808.794826,-70.312,-31.738,-100.098,-67.871
1790598808.798670,-97.168,-39.551,-107.422,-34.180
1790598808.802515,-33.203,-41.992,-92.773,-24.902
1790598808.806359,13.184,-41.504,-84.961,-26.855
1790598808.810204,-63.477,-44.922,-90.332,-33.691
1790598808.814048,-94.238,-40.039,-89.844,-55.176
1790598808.817893,-27.344,-27.832,-78.125,-40.039
1790598808.822721,39.062,-27.832,-72.754,-0.977
1790598808.826567,-0.977,-33.203,-74.707,-13.672
1790598808.830412,-79.590,-41.016,-79.102,-61.523
1790598808.834257,-54.199,-46.387,-67.383,-49.316
1790598808.838103,37.598,-35.156,-47.852,29.297
1790598808.841948,23.926,-29.297,-59.570,19.043
1790598808.845794,-71.289,-25.391,-81.543,-82.031
1790598808.849639,-82.031,-14.648,-81.543,-76.660
1790598808.853485,-4.395,-10.742,-68.848,-28.809
1790598808.857330,34.180,-5.859,-75.195,-3.906
1790598808.861176,-35.645,0.488,-87.891,-43.945
1790598808.865021,-67.383,0.000,-91.797,-78.125
1790598808.869770,-29.785,-4.883,-98.145,-49.805
1790598808.873616,24.414,-4.395,-104.492,-22.461
1790598808.877462,-35.645,-5.371,-107.422,-49.805
1790598808.881308,-91.797,-6.836,-106.445,-38.574
1790598808.885154,-36.133,-10.254,-101.074,-35.156
1790598808.889001,35.156,-14.160,-100.586,-15.625
1790598808.892847,-3.418,-21.484,-121.094,-32.715
1790598808.896693,-77.148,-30.762,-123.535,-99.609
1790598808.900540,-62.012,-32.715,-98.145,-60.059
1790598808.904386,16.113,-28.320,-88.379,-14.648
1790598808.908232,20.996,-32.715,-88.379,-29.297
1790598808.912078,-60.547,-41.992,-87.891,-68.848
1790598808.916725,-62.012,-33.203,-79.590,-66.406
1790598808.920572,1.465,-21.973,-73.730,-17.578
1790598808.924418,20.020,-26.367,-78.125,-13.184
1790598808.928266,-44.922,-29.297,-92.285,-50.293
1790598808.932112,-77.637,-24.414,-106.445,-48.828
1790598808.935959,-28.809,-27.344,-94.238,-20.996
1790598808.939806,24.414,-37.598,-77.637,-9.277
1790598808.943653,-23.926,-40.527,-87.402,-64.453
1790598808.947500,-84.961,-41.016,-94.727,-73.730
1790598808.951347,-54.688,-38.574,-84.473,-42.480
1790598808.955194,12.695,-28.320,-78.125,-20.508
1790598808.959041,-9.766,-26.367,-91.797,-35.156
1790598808.963653,-83.496,-35.156,-99.121,-76.660
1790598808.967500,-65.918,-32.715,-98.145,-47.363
1790598808.971348,-1.953,-32.227,-98.633,-35.645
1790598808.975196,22.949,-33.691,-98.633,-41.016
1790598808.979043,-48.340,-25.391,-98.633,-47.852
1790598808.982891,-70.312,-23.926,-92.773,-55.176
1790598808.986739,-0.488,-27.344,-88.867,-17.090
1790598808.990586,42.969,-25.391,-95.215,6.348
1790598808.994434,-3.906,-29.785,-98.633,-27.344
1790598808.998282,-61.523,-38.086,-88.867,-51.758
1790598809.002129,-33.203,-33.203,-83.984,-7.812
1790598809.005977,28.809,-28.809,-87.891,5.859
1790598809.010564,-7.812,-28.320,-94.238,-26.855
1790598809.014412,-64.453,-26.855,-87.402,-50.293
1790598809.018261,-43.457,-33.203,-82.031,-50.293
1790598809.022109,13.184,-37.109,-83.008,-13.184
1790598809.025957,3.418,-32.715,-80.566,-20.996
1790598809.029806,-76.660,-38.574,-89.355,-60.547
1790598809.033654,-85.449,-37.109,-93.750,-37.109
1790598809.037502,4.883,-26.367,-84.473,17.578
1790598809.041351,39.062,-21.973,-72.266,18.555
1790598809.045199,-47.363,-30.762,-71.777,-55.176
1790598809.049047,-76.172,-34.180,-73.242,-82.031
1790598809.052896,-29.785,-30.762,-73.242,-40.039
1790598809.057415,23.926,-31.250,-68.848,-17.090
1790598809.061264,-19.531,-33.203,-73.730,-39.062
1790598809.065113,-81.055,-36.621,-79.102,-55.664
1790598809.068962,-42.480,-31.738,-68.848,-29.785
1790598809.072811,40.527,-30.273,-68.359,22.461
1790598809.076660,11.230,-28.320,-76.172,-15.137
1790598809.080508,-63.477,-24.414,-80.566,-58.594
1790598809.084358,-47.852,-30.273,-74.707,-37.598
1790598809.088206,2.441,-38.574,-61.523,-18.066
1790598809.092055,-2.930,-47.852,-64.941,-13.184
1790598809.095904,-75.684,-46.875,-77.637,-38.574
1790598809.099753,-85.449,-48.828,-74.219,-22.461
1790598809.104230,-10.742,-46.387,-61.035,-2.441
1790598809.108079,30.273,-35.156,-61.523,-49.805
1790598809.111929,-37.598,-37.598,-66.406,-32.227
1790598809.115778,-79.590,-40.527,-68.848,-48.828
1790598809.119627,-29.297,-36.621,-62.500,-70.801
1790598809.123477,28.809,-34.180,-55.176,25.879
1790598809.127326,-15.137,-36.621,-67.383,13.672
1790598809.131176,-71.777,-43.457,-70.801,-60.547
1790598809.135025,-56.152,-50.293,-66.406,-45.898
1790598809.138875,4.395,-43.945,-60.547,-40.527
1790598809.142724,-15.137,-39.062,-56.152,-35.645
1790598809.146574,-81.055,-38.086,-65.918,-75.684
1790598809.150986,-64.453,-39.062,-67.871,-76.660
1790598809.154836,4.395,-39.551,-62.012,-24.414
1790598809.158686,10.254,-31.250,-65.430,5.859
1790598809.162536,-60.547,-33.203,-67.871,-47.852
1790598809.166386,-76.660,-41.016,-64.453,-68.359
1790598809.170236,-17.578,-41.992,-60.059,-8.789
1790598809.174086,15.137,-38.086,-55.664,-13.184
1790598809.177935,-54.688,-38.086,-55.664,-73.242
1790598809.181785,-90.332,-39.551,-60.059,-76.660
1790598809.185635,-34.668,-41.992,-55.664,-44.434
1790598809.189485,29.297,-39.551,-46.875,-10.254
1790598809.193335,-6.348,-33.691,-40.527,25.391
1790598809.198122,-74.707,-35.156,-39.062,-27.832
1790598809.201972,-52.246,-42.480,-35.645,-74.219
1790598809.205823,26.367,-45.898,-30.762,-14.648
1790598809.209674,-3.906,-47.852,-41.504,-29.785
1790598809.213525,-71.777,-39.551,-37.598,-58.105
1790598809.217375,-56.152,-36.133,-28.809,-45.410
1790598809.221226,-5.371,-44.434,-37.598,6.348
1790598809.225077,10.254,-49.805,-38.086,1.953
1790598809.228927,-70.801,-50.293,-38.086,-72.754
1790598809.232778,-82.520,-45.410,-33.691,4.883
1790598809.236629,-13.672,-36.621,-20.996,6.348
1790598809.240480,17.578,-34.668,-23.438,-89.355
1790598809.245140,-40.039,-36.133,-38.086,-65.918
1790598809.248991,-72.754,-33.203,-36.621,-46.387
1790598809.252843,-27.832,-25.391,-28.320,-22.461
1790598809.256694,37.598,-21.973,-29.297,-1.465
1790598809.260546,4.395,-33.203,-35.645,-21.484
1790598809.264397,-73.730,-35.645,-42.480,-44.434
1790598809.268249,-40.039,-32.227,-41.016,-20.996
1790598809.272100,31.738,-32.227,-30.273,11.719
1790598809.275951,13.184,-26.855,-28.809,19.531
1790598809.279803,-62.988,-26.367,-40.039,-27.344
1790598809.283654,-62.988,-33.203,-33.203,-54.199
1790598809.287506,10.254,-33.203,-16.602,-6.348
1790598809.292171,28.809,-32.227,-16.602,21.973
1790598809.296023,-46.387,-29.297,-19.531,-15.625
1790598809.299875,-78.125,-32.227,-21.484,-49.316
1790598809.303727,-25.879,-41.504,-21.484,-35.156
1790598809.307579,29.297,-37.109,-13.184,42.969
1790598809.311431,-13.672,-35.156,-23.438,0.977
1790598809.315284,-77.148,-35.156,-29.785,-67.871
1790598809.319135,-40.039,-33.203,-23.926,-13.184
1790598809.322988,30.273,-33.203,-28.809,16.602
1790598809.326840,-4.883,-35.156,-35.156,-6.348
1790598809.330692,-76.660,-36.621,-43.945,-39.551
1790598809.334544,-56.641,-30.273,-42.480,-48.828
1790598809.339110,12.695,-33.691,-29.785,-27.832
1790598809.342963,2.441,-40.527,-28.809,-27.832
1790598809.346816,-81.055,-45.410,-46.387,-61.035
1790598809.350668,-85.938,-46.875,-48.340,-59.082
1790598809.354521,-19.531,-38.574,-47.363,-41.016
1790598809.358374,11.719,-37.598,-54.199,-22.949
1790598809.362226,-51.270,-35.645,-50.293,-60.547
1790598809.366079,-82.031,-35.156,-49.316,-68.848
1790598809.369932,-39.062,-42.969,-48.828,-13.672
1790598809.373784,4.395,-44.434,-46.875,-9.277
1790598809.377637,-44.922,-41.992,-54.199,-43.945
1790598809.381490,-99.609,-45.410,-53.223,-52.734
1790598809.385954,-65.430,-42.480,-41.992,-24.414
1790598809.389807,5.371,-35.645,-34.180,18.555
1790598809.393661,-11.719,-35.156,-38.086,-14.648
1790598809.397514,-72.266,-39.551,-44.434,-69.336
1790598809.401367,-70.312,-41.016,-41.992,-71.777
1790598809.405220,-7.812,-38.574,-37.598,-23.926
1790598809.409073,26.855,-40.039,-39.062,-20.508
1790598809.412927,-62.988,-41.992,-44.434,-52.246
1790598809.416780,-92.773,-39.551,-34.668,-57.129
1790598809.420633,-20.020,-41.016,-31.250,-30.273
1790598809.424486,8.301,-47.363,-40.527,-22.461
1790598809.428339,-53.711,-44.434,-49.805,-56.641
1790598809.432806,-94.727,-45.898,-51.758,-78.613
1790598809.436660,-52.734,-50.293,-48.828,-61.035
1790598809.440514,7.812,-47.363,-51.758,-14.648
1790598809.444367,-27.832,-45.410,-52.734,-31.738
1790598809.448221,-84.473,-42.969,-52.734,-81.055
1790598809.452075,-59.570,-43.457,-55.176,-44.922
1790598809.455928,5.859,-45.410,-39.551,6.348
1790598809.459782,-20.020,-43.945,-29.785,-29.297
1790598809.463636,-102.051,-37.598,-36.621,-89.355
1790598809.467489,-78.125,-36.621,-32.715,-77.637
1790598809.471343,-2.441,-27.832,-25.391,-18.555
1790598809.475197,4.395,-22.949,-21.484,-1.465
1790598809.479573,-62.500,-32.715,-23.926,-47.363
1790598809.483428,-72.754,-32.715,-26.855,-55.176
1790598809.487282,-11.719,-34.180,-24.902,-20.020
1790598809.491136,20.996,-44.434,-31.738,-10.742
1790598809.494990,-43.457,-49.805,-38.574,-47.363
1790598809.498844,-99.609,-52.734,-36.621,-74.707
1790598809.502698,-60.059,-51.270,-38.574,-21.484
1790598809.506552,10.254,-43.945,-40.527,19.531
1790598809.510406,-18.555,-39.551,-37.598,-38.574
1790598809.514260,-79.102,-35.645,-30.273,-59.570
1790598809.518114,-66.406,-36.133,-30.273,-25.391
1790598809.521968,-1.953,-37.598,-31.250,-8.789
1790598809.526311,2.930,-37.109,-38.574,-18.066
1790598809.530166,-73.730,-40.039,-45.898,-73.730
1790598809.534020,-85.938,-42.969,-39.551,-63.965
1790598809.537875,-24.414,-46.875,-30.762,-28.809
1790598809.541729,21.973,-45.898,-33.203,-21.484
1790598809.545584,-42.480,-50.293,-46.875,-44.434
1790598809.549438,-85.938,-48.828,-56.152,-57.617
1790598809.553293,-31.250,-41.504,-45.898,-29.785
1790598809.557147,21.484,-47.363,-26.367,11.230
1790598809.561002,-38.086,-55.664,-28.320,-15.137
1790598809.564856,-93.750,-45.410,-17.090,-55.176
1790598809.568711,-64.941,-34.668,-6.836,-38.086
1790598809.573361,-2.441,-39.062,-28.320,-20.996
1790598809.577216,-24.902,-43.945,-44.434,-39.551
1790598809.581071,-96.191,-43.457,-44.434,-58.105
1790598809.584926,-83.984,-36.621,-45.898,-44.434
1790598809.588781,-15.137,-38.574,-41.016,-9.766
1790598809.592636,10.742,-41.016,-35.645,-12.207
1790598809.596491,-61.035,-35.645,-31.738,-38.086
1790598809.600346,-79.590,-39.062,-28.809,-41.016
1790598809.604202,-12.695,-41.504,-20.996,-26.367
1790598809.608057,22.949,-36.621,-13.184,-11.719
1790598809.611912,-54.688,-38.574,-19.043,-48.828
1790598809.615767,-97.168,-41.016,-15.137,-47.852
1790598809.620378,-51.270,-37.109,-15.625,-15.137
1790598809.624233,11.719,-38.574,-21.484,4.883
1790598809.628089,-25.391,-39.551,-28.320,-26.367
1790598809.631945,-95.215,-41.504,-34.668,-78.125
1790598809.635801,-52.734,-39.551,-28.320,-50.781
1790598809.639656,13.672,-35.645,-27.344,-1.465
1790598809.643512,-9.277,-35.645,-29.297,-4.395
1790598809.647368,-73.730,-28.320,-21.973,-42.969
1790598809.651223,-51.758,-23.438,-26.367,-11.719
1790598809.655079,10.742,-31.250,-28.809,26.367
1790598809.658935,15.137,-32.715,-25.391,-8.301
1790598809.662791,-53.711,-31.738,-35.645,-44.922
1790598809.667346,-75.195,-32.227,-42.969,-36.621
1790598809.671202,-13.184,-28.809,-31.250,-4.395
1790598809.675059,35.645,-26.367,-27.344,14.160
1790598809.678915,-18.555,-33.203,-44.922,-13.672
1790598809.682771,-57.617,-35.156,-38.574,-27.832
1790598809.686627,-33.691,-41.016,-22.461,-5.859
1790598809.690484,11.719,-46.387,-16.602,3.906
1790598809.694340,-26.367,-53.711,-17.578,-38.574
1790598809.698196,-83.496,-47.363,-16.602,-45.898
1790598809.702052,-59.570,-45.410,-2.930,-24.414
1790598809.705909,-7.324,-60.059,4.883,-7.812
1790598809.709765,-26.367,-69.824,1.465,-11.230
1790598809.714231,-107.422,-70.312,-9.277,-68.359
1790598809.718088,-104.980,-75.684,-10.742,-59.570
1790598809.721945,-36.621,-82.520,-1.953,-32.227
1790598809.725802,-16.113,-78.613,-1.465,-15.137
1790598809.729658,-83.984,-78.125,-7.324,-26.855
1790598809.733515,-114.746,-78.613,-6.348,-38.574
1790598809.737372,-62.500,-76.172,-0.488,-21.484
1790598809.741228,-1.953,-70.312,8.301,0.488
1790598809.745085,-45.898,-64.941,10.254,-2.441
1790598809.748942,-96.680,-59.082,5.859,-42.480
1790598809.752799,-70.801,-56.152,-0.488,-42.480
1790598809.756655,-14.648,-56.152,-3.418,2.930
1790598809.761083,-28.320,-57.617,-3.418,-2.930
1790598809.764941,-102.051,-59.570,-11.719,-39.551
1790598809.768798,-91.309,-60.059,-15.625,-41.992
1790598809.772655,15.625,-51.758,-17.090,6.348
1790598809.776512,33.203,-43.945,-27.832,6.836
1790598809.780369,-59.082,-47.852,-37.598,-35.156
1790598809.784226,-57.617,-49.805,-34.668,-26.855
1790598809.788083,12.695,-49.805,-18.555,-1.953
1790598809.791940,24.414,-54.199,-9.766,12.207
1790598809.795798,-60.547,-52.734,-14.160,-23.926
1790598809.799655,-95.703,-47.852,-21.484,-42.969
1790598809.803512,-33.203,-51.758,-21.973,-21.484
1790598809.807881,34.668,-49.316,-16.113,17.578
1790598809.811738,-9.277,-36.621,-27.832,4.395
1790598809.815596,-78.125,-30.762,-37.109,-48.340
1790598809.819453,-53.711,-34.180,-30.273,-44.922
1790598809.823311,11.230,-48.340,-28.809,-5.859
1790598809.827168,-2.441,-50.781,-41.504,-10.254
1790598809.831026,-70.801,-46.875,-52.246,-36.133
1790598809.834883,-80.078,-54.688,-57.617,-39.551
1790598809.838741,-16.113,-53.711,-53.223,-25.391
1790598809.842598,-5.859,-51.758,-47.363,-2.930
1790598809.846456,-83.008,-53.223,-46.387,-36.621
1790598809.850313,-89.355,-49.805,-49.316,-48.340
1790598809.854642,-33.691,-42.969,-49.316,-19.043
1790598809.858500,4.883,-41.992,-49.805,-6.348
1790598809.862358,-45.410,-49.316,-53.223,-38.086
1790598809.866215,-90.820,-49.316,-53.223,-57.129
1790598809.870073,-44.922,-41.016,-45.898,-40.039
1790598809.873931,21.484,-40.039,-44.922,-14.160
1790598809.877789,-14.648,-34.668,-50.781,-24.902
1790598809.881647,-85.449,-42.969,-47.852,-54.688
1790598809.885505,-65.430,-53.223,-46.875,-54.199
1790598809.889363,12.695,-41.992,-45.410,-20.996
1790598809.893221,-2.441,-35.645,-41.016,-25.879
1790598809.897079,-85.938,-38.574,-45.410,-66.406
1790598809.901360,-84.473,-47.852,-45.410,-49.805
1790598809.905218,-20.020,-56.152,-42.480,-11.230
1790598809.909076,17.578,-41.992,-43.945,-19.043
1790598809.912935,-44.922,-32.715,-48.828,-52.734
1790598809.916793,-79.590,-35.645,-46.387,-56.152
1790598809.920651,-27.344,-33.203,-44.434,-20.020
1790598809.924509,10.742,-37.598,-52.734,-11.719
1790598809.928367,-43.945,-39.551,-58.594,-66.406
1790598809.932225,-89.844,-41.504,-50.293,-80.078
1790598809.936084,-43.945,-44.434,-49.316,-35.645
1790598809.939942,11.719,-47.363,-51.270,2.930
1790598809.943800,-36.621,-49.316,-54.199,-34.668
1790598809.948045,-90.820,-39.551,-62.012,-62.012
1790598809.951903,-59.570,-30.762,-55.664,-33.203
1790598809.955762,2.441,-32.715,-43.457,-2.930
1790598809.959620,3.418,-32.715,-48.340,-15.625
1790598809.963479,-61.523,-32.715,-60.059,-56.641
1790598809.967337,-66.895,-36.621,-64.941,-53.711
1790598809.971196,2.441,-37.598,-55.664,-11.719
1790598809.975054,18.066,-36.133,-48.340,2.930
1790598809.978913,-56.641,-35.645,-57.617,-40.527
1790598809.982771,-76.172,-33.203,-62.500,-48.340
1790598809.986629,-21.973,-30.762,-64.453,-18.555
1790598809.990488,23.438,-33.203,-69.824,-10.742
1790598809.995061,-18.555,-36.621,-70.312,-30.762
1790598809.998920,-58.594,-30.273,-65.918,-36.133
1790598810.002779,-44.434,-28.320,-52.246,-22.461
1790598810.006638,14.160,-33.691,-48.340,13.184
1790598810.010497,6.836,-35.156,-62.012,-12.695
1790598810.014356,-90.332,-44.434,-70.312,-61.523
1790598810.018215,-87.891,-54.199,-62.012,-49.316
1790598810.022074,-6.348,-48.828,-62.012,-18.555
1790598810.025933,2.441,-43.945,-67.383,-3.906
1790598810.029792,-72.754,-47.852,-62.988,-42.480
1790598810.033651,-82.031,-44.922,-54.688,-50.293
1790598810.037510,-7.324,-42.969,-52.734,-15.137
1790598810.042053,22.949,-40.527,-54.688,13.672
1790598810.045913,-45.410,-33.203,-52.734,-7.812
1790598810.049773,-92.285,-39.551,-54.688,-46.875
1790598810.053632,-42.480,-43.457,-56.641,-27.344
1790598810.057491,21.973,-40.039,-60.059,-2.441
1790598810.061351,-16.113,-41.016,-71.289,-32.715
1790598810.065210,-84.473,-41.504,-70.801,-55.664
1790598810.069070,-57.617,-40.527,-61.035,-38.574
1790598810.072929,26.855,-38.086,-56.641,-0.977
1790598810.076789,6.836,-41.992,-61.523,-29.297
1790598810.080648,-77.148,-51.270,-57.617,-70.801
1790598810.084508,-72.266,-46.875,-45.410,-48.340
1790598810.088979,0.000,-36.621,-42.480,-15.625
1790598810.092839,0.000,-38.086,-42.969,-14.648
1790598810.096699,0.000,-38.574,-44.922,-56.641
1790598810.100559,0.000,-45.898,-59.570,-66.406
1790598810.104419,0.000,-54.199,-62.988,-29.297
1790598810.108279,0.000,-50.293,-66.406,-14.648
1790598810.112139,0.000,-50.293,-71.289,-46.387
1790598810.115999,0.000,-60.547,-66.895,-75.195
1790598810.119859,0.000,-58.105,-70.801,-52.246
1790598810.123719,0.000,-49.316,-64.453,-28.320
1790598810.127578,0.000,-47.852,-59.082,-51.270
1790598810.131438,0.000,-40.527,-58.105,-44.922
1790598810.135871,-61.035,-40.039,-55.664,-27.832
1790598810.139732,10.742,-39.062,-61.523,-14.160
1790598810.143592,5.859,-35.645,-72.266,-10.254
1790598810.147452,-77.637,-42.480,-70.801,-57.617
1790598810.151313,-68.359,-40.039,-56.641,-35.156
1790598810.155173,6.836,-35.156,-44.434,14.160
1790598810.159033,22.949,-34.668,-43.945,-5.859
1790598810.162894,-51.270,-40.039,-50.781,-45.898
1790598810.166754,-77.148,-40.039,-51.758,-65.430
1790598810.170614,-17.090,-32.227,-46.875,-16.113
1790598810.174474,10.254,-35.645,-49.316,5.859
1790598810.178335,-36.133,-32.227,-56.641,-46.387
1790598810.182763,-72.266,-24.414,-43.457,-62.500
1790598810.186624,-40.527,-22.461,-38.574,-46.387
1790598810.190484,26.855,-26.855,-43.945,-3.418
1790598810.194345,2.930,-30.273,-54.688,-19.043
1790598810.198206,-46.875,-23.926,-66.406,-61.523
1790598810.202066,-27.344,-25.879,-53.711,-38.574
1790598810.205927,37.109,-26.367,-36.133,0.000
1790598810.209788,31.738,-22.461,-38.574,8.789
1790598810.213649,-57.129,-27.832,-41.016,-30.273
1790598810.217509,-62.012,-31.738,-31.250,-49.316
1790598810.221370,7.324,-27.344,-35.156,-13.184
1790598810.225231,31.738,-27.344,-39.551,13.672
1790598810.229544,-40.039,-33.691,-38.574,-23.926
1790598810.233405,-73.730,-36.133,-46.875,-50.293
1790598810.237266,-31.738,-44.922,-47.852,-21.484
1790598810.241127,20.508,-43.945,-45.898,-2.930
1790598810.244988,-22.461,-38.086,-54.199,-35.156
1790598810.248849,-75.195,-41.016,-64.453,-61.035
1790598810.252710,-47.363,-41.992,-69.336,-39.551
1790598810.256571,2.930,-44.434,-62.500,-13.184
1790598810.260432,-20.508,-52.246,-57.129,-28.809
1790598810.264293,-85.938,-58.594,-69.824,-45.410
1790598810.268154,-78.125,-55.664,-74.219,-55.176
1790598810.272015,-4.395,-46.387,-57.129,-34.668
1790598810.276282,6.348,-43.945,-53.223,-22.949
1790598810.280143,-71.777,-42.969,-66.406,-46.875
1790598810.284004,-72.754,-39.551,-62.012,-52.246
1790598810.287866,-4.883,-41.992,-57.129,-22.949
1790598810.291727,25.879,-42.480,-56.152,-1.465
1790598810.295588,-32.715,-40.039,-53.223,-39.551
1790598810.299449,-79.590,-39.062,-62.988,-46.387
1790598810.303311,-44.434,-36.621,-65.430,-23.926
1790598810.307172,9.766,-36.133,-66.406,-16.113
1790598810.311033,-31.250,-41.504,-79.102,-44.434
1790598810.314895,-98.145,-45.898,-68.359,-62.500
1790598810.318756,-68.848,-35.645,-65.918,-51.270
1790598810.323019,3.418,-36.621,-75.684,-13.672
1790598810.326881,0.000,-44.434,-81.543,-11.719
1790598810.330742,-80.078,-41.016,-84.961,-50.781
1790598810.334604,-77.148,-41.504,-76.172,-46.387
1790598810.338465,8.301,-37.109,-68.359,-18.555
1790598810.342327,15.625,-28.320,-65.918,-12.695
1790598810.346189,-60.059,-28.320,-59.570,-44.434
1790598810.350050,-82.031,-35.156,-62.988,-68.359
1790598810.353912,-32.227,-42.480,-62.988,-49.316
1790598810.357773,17.578,-34.668,-59.570,-2.930
1790598810.361635,-42.969,-34.180,-73.242,-30.273
1790598810.365496,-91.309,-37.109,-73.242,-51.758
1790598810.370066,-55.176,-39.062,-70.312,-51.270
1790598810.373929,6.836,-43.457,-79.102,-35.156
1790598810.377790,-23.438,-45.410,-86.914,-36.621
1790598810.381653,-94.727,-49.316,-81.055,-69.336
1790598810.385514,-75.195,-46.387,-83.984,-60.547
1790598810.389377,-2.441,-42.480,-87.891,-14.648
1790598810.393239,-3.906,-38.574,-83.496,-13.672
1790598810.397101,-88.867,-36.133,-86.914,-58.594
1790598810.400963,-94.727,-40.527,-83.008,-42.969
1790598810.404825,-24.902,-45.410,-65.430,-15.625
1790598810.408687,-4.395,-46.387,-62.012,-25.391
1790598810.412549,-68.359,-44.434,-82.031,-67.383
1790598810.417062,-95.703,-35.156,-78.613,-70.801
1790598810.420925,-43.945,-31.250,-73.242,-38.086
1790598810.424787,15.137,-32.227,-68.359,-15.625
1790598810.428650,-50.293,-32.227,-67.383,-48.828
1790598810.432512,-114.258,-41.992,-77.148,-77.148
1790598810.436375,-72.754,-49.316,-67.871,-45.898
1790598810.440237,6.836,-48.828,-62.500,-21.484
1790598810.444100,-11.719,-50.781,-71.777,-53.223
1790598810.447962,-85.938,-46.875,-74.707,-63.965
1790598810.451825,-83.008,-45.898,-71.289,-47.852
1790598810.455687,-9.766,-40.527,-74.219,-22.949
1790598810.459550,11.230,-31.738,-83.008,-13.672
1790598810.464027,-77.637,-35.156,-83.008,-60.547
1790598810.467890,-93.262,-40.039,-83.496,-53.223
1790598810.471753,-20.996,-40.527,-74.219,-10.742
1790598810.475616,16.113,-44.434,-67.871,-9.277
1790598810.479479,-50.293,-45.898,-73.730,-48.828
1790598810.483342,-92.773,-45.410,-79.102,-73.242
1790598810.487205,-38.086,-45.410,-84.961,-41.016
1790598810.491068,26.855,-43.945,-77.148,-5.859
1790598810.494931,-12.695,-46.875,-73.730,-23.438
1790598810.498794,-81.543,-44.922,-72.266,-56.641
1790598810.502656,-70.801,-38.574,-72.266,-44.922
1790598810.506519,-3.418,-36.621,-72.754,-6.836
1790598810.510945,-14.160,-33.691,-67.383,-25.391
1790598810.514808,-81.543,-36.133,-63.477,-59.570
1790598810.518672,-63.477,-40.039,-59.570,-45.410
1790598810.522535,3.418,-34.180,-55.176,-3.906
1790598810.526398,19.531,-30.762,-58.105,10.742
1790598810.530262,-47.852,-31.738,-63.965,-34.668
1790598810.534125,-77.148,-35.645,-62.012,-46.387
1790598810.537988,-17.578,-38.086,-59.570,-4.395
1790598810.541852,21.973,-36.621,-59.570,1.953
1790598810.545715,-45.898,-38.086,-69.336,-58.105
1790598810.549578,-91.797,-40.039,-74.219,-71.289
1790598810.553441,-42.480,-33.691,-64.941,-33.203
1790598810.557783,21.973,-30.273,-72.754,-16.602
1790598810.561646,-28.809,-38.574,-83.496,-37.598
1790598810.565510,-94.238,-34.180,-85.938,-54.199
1790598810.569373,-64.941,-32.715,-89.844,-60.059
1790598810.573237,-0.488,-53.223,-90.332,-34.668
1790598810.577101,-6.348,-60.059,-88.867,-19.043
1790598810.580964,-83.008,-55.664,-89.844,-65.918
1790598810.584828,-78.125,-52.734,-88.379,-73.242
1790598810.588691,-8.789,-49.805,-76.660,-21.484
1790598810.592555,1.953,-52.246,-70.312,-16.602
1790598810.596419,-66.406,-42.969,-77.148,-59.082
1790598810.600282,-83.984,-33.203,-73.242,-57.617
1790598810.604885,-21.484,-27.832,-55.664,-23.926
1790598810.608749,30.762,-22.461,-55.176,-24.414
1790598810.612613,-29.297,-33.203,-70.312,-61.035
1790598810.616477,-77.148,-36.621,-74.707,-58.594
1790598810.620342,-28.809,-27.832,-68.359,-27.832
1790598810.624206,20.996,-28.320,-67.383,-4.883
1790598810.628070,-7.324,-30.762,-68.848,0.000
1790598810.631934,-77.148,-33.203,-70.801,-43.457
1790598810.635798,-80.566,-29.297,-70.312,-62.500
1790598810.639662,-1.465,-20.996,-69.824,-24.902
1790598810.643526,5.371,-25.391,-78.125,-38.574
1790598810.647390,-73.242,-22.461,-79.102,-74.219
1790598810.651649,-58.594,-11.719,-77.148,-58.105
1790598810.655513,-0.977,-16.602,-83.496,-12.207
1790598810.659377,1.465,-30.273,-90.820,-21.484
1790598810.663241,-62.012,-36.133,-96.680,-72.266
1790598810.667106,-84.961,-33.691,-101.562,-74.219
1790598810.670970,-24.414,-34.180,-100.586,-33.691
1790598810.674834,31.250,-28.809,-94.727,19.043
1790598810.678699,-27.344,-32.715,-93.262,-25.879
1790598810.682563,-94.727,-38.086,-97.168,-78.125
1790598810.686427,-61.035,-31.738,-100.098,-56.152
1790598810.690292,11.230,-30.762,-93.750,-20.020
1790598810.694156,-5.859,-28.320,-86.426,-20.508
1790598810.698370,-78.125,-25.879,-83.984,-62.988
1790598810.702234,-61.035,-26.855,-84.473,-46.875
1790598810.706099,4.395,-24.414,-79.590,-0.977
1790598810.709963,10.254,-24.902,-85.938,-12.207
1790598810.713828,-61.035,-33.203,-101.562,-63.965
1790598810.717692,-77.637,-35.156,-95.215,-60.059
1790598810.721557,-6.836,-26.367,-88.867,-21.973
1790598810.725421,20.020,-27.832,-89.355,-11.230
1790598810.729286,-47.363,-35.645,-88.379,-25.879
1790598810.733151,-86.914,-36.621,-94.238,-50.781
1790598810.737015,-58.594,-46.387,-95.703,-37.598
1790598810.740880,-2.930,-52.734,-97.168,-18.066
1790598810.745370,-40.039,-44.434,-102.051,-53.711
1790598810.749235,-95.703,-40.039,-103.516,-88.379
1790598810.753100,-63.477,-40.039,-95.703,-55.664
1790598810.756965,9.766,-37.109,-83.496,6.836
1790598810.760830,5.859,-36.621,-88.867,-27.832
1790598810.764695,-76.172,-39.551,-94.727,-69.824
1790598810.768560,-69.824,-44.434,-92.285,-51.270
1790598810.772424,-5.859,-43.945,-88.867,-36.133
1790598810.776289,10.254,-34.180,-88.867,-23.438
1790598810.780154,-49.316,-28.320,-88.867,-37.109
1790598810.784019,-88.379,-39.551,-80.566,-75.195
1790598810.787884,-27.344,-47.852,-72.266,-51.270
1790598810.792340,24.902,-42.969,-81.055,-20.996
1790598810.796206,-42.969,-40.039,-91.797,-48.340
1790598810.800071,-90.332,-41.992,-85.449,-58.594
1790598810.803936,-45.898,-46.875,-77.148,-32.227
1790598810.807801,25.879,-41.992,-72.754,-2.930
1790598810.811667,-4.883,-32.715,-80.078,-25.879
1790598810.815532,-75.684,-30.273,-78.613,-49.805
1790598810.819397,-54.199,-35.156,-68.359,-40.039
1790598810.823263,6.348,-36.133,-70.801,-13.672
1790598810.827128,0.488,-35.156,-69.336,-17.578
1790598810.830993,-72.266,-38.574,-62.988,-58.594
1790598810.834859,-70.312,-35.156,-73.730,-62.012
1790598810.839269,-9.766,-36.133,-80.078,-18.066
1790598810.843135,9.277,-37.109,-75.684,5.859
1790598810.847001,-53.711,-32.715,-74.219,-44.922
1790598810.850866,-72.266,-30.762,-76.172,-49.316
1790598810.854732,-23.926,-30.762,-79.590,-21.484
1790598810.858598,25.879,-30.762,-71.777,0.977
1790598810.862463,-20.508,-30.273,-63.965,-23.438
1790598810.866329,-82.520,-31.738,-65.430,-62.500
1790598810.870195,-49.805,-34.180,-63.965,-42.480
1790598810.874060,12.207,-42.480,-61.523,-9.766
1790598810.877926,-2.930,-39.551,-69.824,-16.113
1790598810.881792,-65.918,-34.668,-78.125,-53.223
1790598810.886151,-52.734,-30.273,-76.172,-52.246
1790598810.890017,15.625,-22.461,-62.988,-19.043
1790598810.893883,24.902,-16.113,-57.617,-5.371
1790598810.897749,-52.734,-21.484,-65.430,-37.109
1790598810.901615,-72.266,-27.344,-65.430,-50.781
1790598810.905481,-11.719,-24.414,-57.129,-24.414
1790598810.909347,29.785,-22.461,-59.082,-5.371
1790598810.913213,-37.109,-26.855,-65.918,-35.156
1790598810.917079,-83.496,-27.832,-63.477,-46.875
1790598810.920945,-26.855,-27.344,-53.711,-24.414
1790598810.924811,31.738,-32.715,-65.918,-16.602
1790598810.928677,-19.531,-28.320,-79.590,-36.621
1790598810.933102,-83.984,-28.320,-63.477,-53.711
1790598810.936968,-51.758,-35.156,-58.105,-55.176
1790598810.940834,6.836,-39.062,-75.684,-25.391
1790598810.944701,-15.625,-42.480,-81.543,-34.668
1790598810.948567,-86.426,-41.016,-79.102,-69.824
1790598810.952433,-79.102,-41.992,-78.125,-54.688
1790598810.956300,-4.395,-41.016,-71.777,-23.926
1790598810.960166,23.926,-35.156,-67.383,-17.090
1790598810.964032,-48.340,-29.297,-62.500,-58.594
1790598810.967899,-76.172,-32.715,-61.035,-69.336
1790598810.971765,-19.043,-38.574,-67.871,-43.945
1790598810.975631,21.973,-37.109,-64.453,-23.438
1790598810.979924,-37.109,-31.250,-64.941,-44.434
1790598810.983791,-90.820,-32.715,-76.172,-65.918
1790598810.987657,-45.898,-35.645,-79.102,-36.621
1790598810.991524,23.926,-34.668,-69.336,1.953
1790598810.995390,-17.578,-33.691,-62.500,-28.320
1790598810.999257,-78.613,-37.598,-68.359,-51.270
1790598811.003124,-53.711,-39.551,-79.102,-35.645
1790598811.006990,6.836,-36.133,-74.219,-9.277
1790598811.010857,4.883,-36.621,-60.547,-23.438
1790598811.014723,-73.242,-40.039,-63.477,-72.266
1790598811.018590,-66.406,-39.062,-70.801,-58.105
1790598811.022456,10.254,-35.645,-68.359,-18.066
1790598811.026703,0.000,-35.156,-69.824,-15.625
1790598811.030570,0.000,-38.086,-78.613,-51.270
1790598811.034436,0.000,-38.574,-75.195,-53.223
1790598811.038303,0.000,-31.738,-63.965,-17.578
1790598811.042170,0.000,-25.879,-63.965,2.441
1790598811.046037,0.000,-26.367,-68.359,-23.926
1790598811.049904,0.000,-27.344,-66.895,-48.340
1790598811.053771,0.000,-23.438,-62.012,-28.809
1790598811.057637,0.000,-20.996,-68.359,5.371
1790598811.061504,0.000,-23.926,-82.520,-1.953
1790598811.065371,0.000,-26.367,-76.660,-2.930
1790598811.069238,0.000,-23.926,-63.477,-12.695
1790598811.073720,34.180,-25.879,-64.941,-9.766
1790598811.077587,18.066,-35.645,-72.266,-6.348
1790598811.081454,-60.059,-43.457,-80.566,-47.363
1790598811.085321,-67.871,-47.363,-83.008,-48.828
1790598811.089188,1.953,-39.551,-78.125,-19.043
1790598811.093056,33.203,-38.574,-75.195,4.883
1790598811.096923,-44.434,-41.016,-70.312,-34.180
1790598811.100790,-76.172,-35.645,-70.312,-58.105
1790598811.104657,-20.508,-32.227,-60.547,-28.320
1790598811.108524,37.109,-18.066,-54.688,1.465
1790598811.112391,-12.695,-19.531,-63.965,-6.836
1790598811.116259,-76.172,-28.809,-62.012,-27.832
1790598811.120736,-38.574,-26.367,-59.082,-16.113
1790598811.124604,28.320,-22.949,-52.246,16.602
1790598811.128471,-5.371,-30.273,-53.223,-8.301
1790598811.132339,-84.473,-41.504,-58.594,-49.805
1790598811.136206,-63.477,-41.504,-60.059,-32.715
1790598811.140074,12.207,-39.551,-55.176,-8.301
1790598811.143941,17.090,-43.457,-53.223,-18.555
1790598811.147809,-61.035,-45.410,-54.688,-62.500
1790598811.151676,-77.637,-46.387,-56.641,-57.617
1790598811.155544,-13.184,-43.945,-50.781,-12.207
1790598811.159412,9.277,-45.898,-37.109,-8.789
1790598811.163279,-46.387,-43.457,-43.457,-39.551
1790598811.167717,-71.289,-40.039,-56.641,-62.500
1790598811.171585,-31.738,-45.410,-61.035,-43.945
1790598811.175452,13.184,-43.945,-51.758,-18.066
1790598811.179320,-29.785,-39.551,-53.711,-25.879
1790598811.183188,-82.031,-40.039,-61.523,-41.504
1790598811.187056,-49.316,-42.480,-56.641,-47.363
1790598811.190924,10.254,-41.504,-55.664,-14.648
1790598811.194792,-2.441,-39.551,-59.570,-6.348
1790598811.198660,-62.988,-42.969,-64.453,-42.480
1790598811.202528,-55.664,-47.363,-59.082,-41.016
1790598811.206395,-1.953,-37.598,-56.641,-12.695
1790598811.210263,5.371,-36.133,-74.707,-4.395
1790598811.214684,-67.871,-37.109,-76.660,-35.645
1790598811.218552,-98.145,-32.227,-61.523,-49.316
1790598811.222420,-27.832,-31.250,-46.387,-23.438
1790598811.226289,24.414,-36.133,-50.293,5.371
1790598811.230157,-39.062,-37.109,-64.453,-37.598
1790598811.234025,-88.867,-32.715,-65.430,-78.613
1790598811.237893,-57.129,-37.109,-65.430,-46.387
1790598811.241761,-1.953,-44.434,-64.941,-3.418
1790598811.245630,-29.785,-43.945,-71.289,-29.785
1790598811.249498,-97.168,-45.410,-69.824,-69.824
1790598811.253366,-87.402,-47.363,-63.965,-53.711
1790598811.257234,-22.461,-47.363,-66.895,-20.508
1790598811.261590,-22.461,-42.969,-71.777,-39.551
1790598811.265458,-96.191,-48.340,-71.777,-84.473
1790598811.269327,-109.375,-54.199,-73.730,-63.477
1790598811.273195,-33.691,-44.434,-66.406,-30.273
1790598811.277064,-0.488,-38.086,-58.594,-29.785
1790598811.280932,-70.312,-41.504,-60.059,-59.570
1790598811.284801,-101.562,-44.434,-58.105,-58.105
1790598811.288669,-50.293,-43.457,-56.152,-14.160
1790598811.292538,8.301,-44.922,-61.523,-7.324
1790598811.296406,-36.621,-41.016,-67.871,-46.387
1790598811.300275,-90.820,-38.086,-64.453,-71.289
1790598811.304143,-51.758,-42.969,-57.129,-44.922
1790598811.308438,6.836,-42.480,-52.734,-14.160
1790598811.312307,-23.438,-36.133,-50.293,-21.484
1790598811.316176,-73.730,-36.621,-51.758,-36.621
1790598811.320045,-51.758,-33.203,-52.734,-38.086
1790598811.323913,9.277,-33.203,-45.898,-10.742
1790598811.327782,16.602,-41.504,-45.410,-20.020
1790598811.331651,-70.801,-48.340,-55.176,-41.504
1790598811.335520,-94.727,-47.363,-55.664,-26.367
1790598811.339388,-23.438,-47.852,-52.734,-21.484
1790598811.343257,14.160,-51.758,-52.246,-14.160
1790598811.347126,-60.059,-51.758,-60.547,-25.391
1790598811.350995,-102.051,-48.340,-70.312,-59.570
1790598811.355265,-46.387,-45.898,-68.359,-70.312
1790598811.359134,15.137,-42.480,-58.594,-37.109
1790598811.363003,-24.902,-41.016,-60.547,-50.293
1790598811.366872,-86.914,-39.551,-60.059,-58.594
1790598811.370741,-61.523,-34.668,-56.152,-31.250
1790598811.374610,7.324,-31.738,-56.152,-2.441
1790598811.378479,-4.883,-37.598,-55.664,-20.996
1790598811.382348,-77.148,-34.668,-55.664,-68.359
1790598811.386217,-70.801,-20.996,-52.734,-59.082
1790598811.390086,12.695,-16.602,-49.805,-15.625
1790598811.393955,23.926,-19.043,-57.129,-26.367
1790598811.397824,-63.965,-28.320,-66.406,-47.852
1790598811.402018,-86.426,-34.180,-62.988,-43.457
1790598811.405887,-25.879,-28.320,-59.570,-35.645
1790598811.409756,13.672,-25.391,-59.082,-6.836
1790598811.413625,-56.152,-30.762,-62.500,-48.828
1790598811.417494,-98.633,-32.715,-65.918,-65.918
1790598811.421363,-46.875,-31.738,-72.266,-38.086
1790598811.425233,26.855,-22.461,-69.336,-0.488
1790598811.429102,-12.695,-24.902,-71.289,-18.555
1790598811.432971,-75.684,-31.738,-83.496,-27.344
1790598811.436840,-46.875,-27.832,-88.867,-7.812
1790598811.440709,18.555,-34.180,-77.148,-13.184
1790598811.444578,2.441,-31.738,-73.242,-42.480
1790598811.449041,-80.566,-27.832,-77.148,-58.594
1790598811.452910,-76.660,-26.855,-74.707,-37.598
1790598811.456780,7.812,-23.926,-73.730,0.977
1790598811.460649,32.715,-32.227,-75.195,19.531
1790598811.464519,-41.504,-30.762,-88.379,-21.973
1790598811.468388,-60.059,-29.785,-90.332,-33.691
1790598811.472258,-7.812,-37.109,-82.031,4.883
1790598811.476127,31.250,-33.203,-76.660,16.602
1790598811.479997,-20.508,-31.738,-82.031,-4.883
1790598811.483866,-64.941,-34.668,-86.426,-31.250
1790598811.487736,-33.691,-33.203,-77.637,-22.949
1790598811.491605,30.762,-35.156,-66.406,11.719
1790598811.496023,16.602,-30.762,-61.523,0.488
1790598811.499893,-46.875,-27.344,-65.918,-21.484
1790598811.503762,-37.598,-27.832,-74.219,-31.738
1790598811.507632,21.484,-26.367,-73.730,10.742
1790598811.511502,22.949,-31.738,-70.801,-6.348
1790598811.515372,-59.082,-41.504,-77.148,-25.879
1790598811.519242,-82.031,-52.734,-80.566,-26.855
1790598811.523112,-7.324,-45.898,-62.500,-21.973
1790598811.526981,36.133,-32.227,-55.176,11.719
1790598811.530851,-31.738,-31.250,-65.918,-40.527
1790598811.534721,-76.660,-30.273,-64.453,-51.270
1790598811.538591,-25.879,-28.809,-67.383,-9.277
1790598811.542972,35.645,-18.066,-63.477,20.508
1790598811.546842,-18.066,-16.602,-61.523,4.883
1790598811.550713,-80.078,-22.949,-61.523,-8.789
1790598811.554583,-52.734,-27.832,-60.059,-15.137
1790598811.558453,18.555,-31.250,-61.523,-1.953
1790598811.562323,2.930,-32.227,-65.430,-22.461
1790598811.566193,-75.684,-34.668,-62.012,-62.500
1790598811.570063,-68.359,-34.668,-53.711,-48.340
1790598811.573933,-8.301,-41.504,-56.641,-28.320
1790598811.577803,-6.836,-41.016,-56.641,-19.531
1790598811.581673,-72.754,-40.039,-57.129,-47.852
1790598811.585543,-74.707,-40.527,-55.664,-41.504
1790598811.589886,2.441,-28.320,-42.969,16.602
1790598811.593757,34.668,-24.414,-45.410,16.113
1790598811.597627,-33.203,-24.902,-53.711,-45.410
1790598811.601498,-60.059,-18.066,-52.734,-42.480
1790598811.605368,-20.508,-16.602,-45.898,-18.555
1790598811.609238,30.762,-22.461,-34.668,6.348
1790598811.613109,-14.160,-26.367,-39.062,-14.648
1790598811.616979,-72.754,-25.879,-41.504,-58.594
1790598811.620849,-34.180,-27.344,-41.504,-20.508
1790598811.624720,33.691,-29.297,-39.551,6.348
1790598811.628590,10.254,-23.438,-37.598,-25.879
1790598811.632461,-58.105,-13.672,-44.434,-33.203
1790598811.636768,-54.199,-12.695,-39.551,-30.273
1790598811.640638,-5.859,-13.672,-30.762,-25.391
1790598811.644509,12.695,-20.996,-38.086,-19.043
1790598811.648380,-60.059,-23.438,-51.270,-55.176
1790598811.652250,-75.195,-13.184,-47.363,-37.598
1790598811.656121,-1.465,-12.695,-44.434,-8.301
1790598811.659992,38.086,-15.137,-55.664,-15.625
1790598811.663862,-26.855,-15.625,-64.941,-16.602
1790598811.667733,-75.684,-14.160,-60.547,-78.125
1790598811.671603,-33.691,-11.719,-47.852,-20.996
1790598811.675474,18.555,-19.531,-40.039,41.016
1790598811.679344,-28.809,-22.461,-50.781,-45.410
1790598811.683634,-84.473,-18.066,-61.523,-65.918
1790598811.687505,-50.781,-18.066,-52.246,-62.012
1790598811.691376,3.418,-27.344,-45.410,-40.039
1790598811.695246,-0.488,-36.621,-53.223,-36.621
1790598811.699117,-83.496,-39.551,-53.223,-55.664
1790598811.702988,-85.449,-30.273,-49.316,-43.457
1790598811.706859,-10.254,-25.879,-43.945,-16.602
1790598811.710730,12.695,-30.273,-38.574,-16.602
1790598811.714601,-59.082,-30.762,-49.316,-39.551
1790598811.718472,-96.191,-31.250,-57.617,-49.316
1790598811.722342,-27.344,-27.832,-50.781,-40.527
1790598811.726213,36.621,-25.391,-50.293,-23.438
1790598811.730701,-44.922,-33.691,-63.477,-79.102
1790598811.734573,-106.445,-43.945,-74.219,-90.820
1790598811.738444,-59.082,-38.574,-60.547,-30.762
1790598811.742315,2.441,-34.180,-52.246,-20.020
1790598811.746186,-23.438,-41.504,-69.336,-45.410
1790598811.750057,-93.750,-42.480,-64.453,-69.824
1790598811.753929,-70.312,-40.039,-53.223,-46.387
1790598811.757800,0.000,-36.133,-46.875,10.742
1790598811.761671,-8.789,-38.574,-45.898,13.184
1790598811.765542,-86.914,-38.574,-62.500,-64.941
1790598811.769413,-85.449,-27.832,-63.477,-45.410
1790598811.773284,-17.090,-35.645,-55.176,-35.156
1790598811.777457,9.766,-39.551,-57.129,-18.066
1790598811.781328,-53.711,-36.133,-61.035,-50.293
1790598811.785200,-87.402,-38.086,-56.641,-122.070
1790598811.789071,-33.691,-41.016,-52.734,-61.523
1790598811.792943,25.879,-48.828,-49.316,17.090
1790598811.796814,-22.949,-53.223,-53.223,-19.531
1790598811.800685,-77.148,-39.062,-58.105,-75.684
1790598811.804557,-61.035,-28.809,-54.688,-49.316
1790598811.808428,-3.906,-33.203,-49.805,7.324
1790598811.812299,-11.719,-46.387,-41.016,-30.273
1790598811.816171,-84.961,-48.340,-34.180,-106.445
1790598811.820042,-82.520,-32.227,-22.461,-53.711
1790598811.824217,-1.953,-34.180,-20.996,-8.301
1790598811.828089,25.879,-42.969,-31.250,-4.883
1790598811.831960,-53.223,-36.133,-22.949,38.574
1790598811.835831,-65.918,-16.113,-12.207,-25.879
1790598811.839703,-2.930,-7.812,-22.949,-11.719
1790598811.843575,12.695,-14.160,-38.574,4.395
1790598811.847446,-37.109,-9.277,-58.594,-87.402
1790598811.851317,-68.848,-6.348,-68.359,-63.477
1790598811.855189,-34.180,-10.254,-70.312,-21.484
1790598811.859061,20.508,-12.207,-75.684,-20.996
1790598811.862932,-18.555,-16.602,-84.473,-54.688
1790598811.866803,-86.914,-13.184,-90.820,-74.707
1790598811.871181,-62.012,-14.648,-93.750,-77.637
1790598811.875053,6.836,-13.672,-102.539,-54.688
1790598811.878925,-12.695,-10.254,-107.910,-46.875
1790598811.882797,-86.426,-15.625,-104.980,-75.195
1790598811.886668,-65.430,-15.137,-104.004,-61.035
1790598811.890540,0.977,-14.160,-110.352,-47.852
1790598811.894412,16.113,-16.113,-108.398,-41.504
1790598811.898284,-48.340,-20.508,-96.191,-55.664
1790598811.902155,-77.148,-21.973,-71.777,-51.270
1790598811.906027,-21.973,-20.508,-62.988,2.930
1790598811.909899,20.020,-18.066,-69.336,-7.812
1790598811.913771,-46.875,-15.625,-76.660,-88.867
1790598811.918112,-94.727,-19.043,-81.055,-75.195
1790598811.921984,-55.664,-25.391,-77.148,-53.711
1790598811.925856,13.672,-25.391,-74.219,-30.273
1790598811.929728,-22.949,-29.785,-78.613,-39.062
1790598811.933600,-97.656,-41.992,-77.148,-39.062
1790598811.937472,-64.453,-41.992,-70.801,-37.598
1790598811.941344,12.207,-20.996,-61.035,-38.574
1790598811.945216,7.324,-11.719,-54.688,-30.273
1790598811.949089,-63.965,-15.625,-66.895,-60.059
1790598811.952960,-74.707,-15.137,-75.195,-75.684
1790598811.956833,-12.207,-12.695,-64.941,-20.996
1790598811.960705,38.086,-10.742,-58.105,13.672
1790598811.965023,-29.785,-16.113,-61.035,-44.434
1790598811.968895,-79.590,-24.902,-62.012,-14.160
1790598811.972767,-27.344,-22.461,-58.594,-20.020
1790598811.976640,27.832,-17.578,-60.059,-15.137
1790598811.980512,-20.020,-19.531,-60.547,-4.883
1790598811.984384,-79.590,-25.391,-63.965,2.441
1790598811.988256,-39.551,-24.414,-69.336,-8.301
1790598811.992129,32.715,-19.531,-69.336,-32.715
1790598811.996001,8.789,-20.508,-65.430,-32.715
1790598811.999873,-83.496,-31.738,-68.848,-62.988
1790598812.003745,-83.984,-34.668,-77.148,-67.871
1790598812.007618,-1.953,-34.668,-67.871,-23.926
1790598812.011899,10.254,-36.133,-67.383,-6.348
1790598812.015771,-63.477,-32.227,-78.613,-29.297
1790598812.019644,-80.566,-34.180,-72.754,-12.207
1790598812.023516,-22.949,-33.203,-57.129,-4.395
1790598812.027389,13.184,-30.762,-53.711,-39.062
1790598812.031261,-51.758,-31.250,-64.453,-79.102
1790598812.035134,-79.590,-30.762,-64.941,-74.219
1790598812.039006,-23.438,-28.320,-59.082,-39.551
1790598812.042879,20.996,-35.645,-57.129,-13.672
1790598812.046751,-31.250,-36.621,-59.570,-71.289
1790598812.050624,-76.660,-29.785,-53.223,-65.918
1790598812.054496,-38.574,-31.250,-51.270,-20.508
1790598812.058714,15.625,-32.227,-53.711,-16.113
1790598812.062586,-0.977,-31.250,-49.316,-26.367
1790598812.066459,-64.453,-26.855,-44.922,-79.102
1790598812.070332,-63.965,-23.438,-40.039,-53.223
1790598812.074204,5.371,-22.949,-35.645,-0.977
1790598812.078077,11.719,-26.367,-30.273,-14.648
1790598812.081950,-69.824,-27.344,-32.227,-56.641
1790598812.085822,-70.801,-22.949,-35.156,-72.266
1790598812.089695,-5.371,-20.996,-29.785,11.719
1790598812.093568,30.762,-18.555,-28.320,14.160
1790598812.097440,-31.738,-15.625,-39.062,-54.199
1790598812.101313,-91.309,-20.996,-49.316,-45.410
1790598812.105613,-41.992,-26.367,-46.387,-59.082
1790598812.109486,7.324,-29.785,-47.363,-27.344
1790598812.113358,-45.898,-35.156,-54.199,-25.391
1790598812.117231,-103.516,-29.297,-43.945,-64.941
1790598812.121104,-69.336,-21.973,-31.738,-29.297
1790598812.124977,16.602,-20.020,-33.203,-11.230
1790598812.128850,9.277,-19.531,-36.133,9.766
1790598812.132723,-66.895,-22.949,-33.203,4.883
1790598812.136596,-79.102,-33.691,-30.762,-77.148
1790598812.140469,-3.418,-35.156,-30.273,-48.340
1790598812.144341,24.414,-27.344,-29.297,-15.625
1790598812.148214,-57.617,-34.180,-25.391,-46.387
1790598812.152391,-81.543,-42.480,-22.949,-34.180
1790598812.156264,-35.156,-43.945,-30.273,-17.578
1790598812.160137,9.277,-43.457,-30.762,-17.090
1790598812.164010,-34.180,-42.969,-32.715,-60.547
1790598812.167883,-82.031,-42.969,-33.691,-82.520
1790598812.171756,-53.223,-45.410,-24.902,20.508
1790598812.175629,9.277,-42.480,-19.531,33.203
1790598812.179502,-13.184,-39.551,-19.531,-52.734
1790598812.183375,-77.637,-40.527,-24.902,-56.152
1790598812.187248,-48.828,-50.293,-27.832,-46.875
1790598812.191121,3.418,-59.082,-27.344,-16.113
1790598812.194994,3.418,-48.828,-25.879,-12.207
1790598812.199422,-66.406,-42.969,-25.879,-55.664
1790598812.203295,-77.148,-42.969,-35.156,-19.531
1790598812.207169,1.953,-42.480,-33.691,1.953
1790598812.211042,28.809,-44.434,-25.391,-60.547
1790598812.214915,-45.898,-45.410,-31.738,-39.551
1790598812.218789,-74.219,-42.969,-42.969,-28.320
1790598812.222662,-21.973,-39.062,-37.109,-20.996
1790598812.226535,26.367,-44.434,-21.484,24.902
1790598812.230409,-33.203,-54.199,-26.367,-55.176
1790598812.234282,-94.238,-52.734,-38.086,-85.449
1790598812.238155,-60.059,-45.410,-40.527,-64.941
1790598812.242028,8.789,-42.969,-38.086,-47.852
1790598812.246400,0.977,-41.504,-44.434,-35.645
1790598812.250273,-55.664,-40.527,-41.992,-68.848
1790598812.254147,-57.129,-50.781,-27.832,-67.383
1790598812.258020,-2.441,-56.641,-30.273,26.367
1790598812.261894,3.906,-55.176,-51.758,-7.812
1790598812.265768,-69.336,-56.152,-61.035,-58.594
1790598812.269641,-75.684,-54.688,-51.270,-39.551
1790598812.273515,-7.812,-54.199,-40.039,-58.594
1790598812.277388,23.926,-56.641,-42.480,-36.133
1790598812.281262,-41.504,-53.711,-49.316,-42.480
1790598812.285136,-84.473,-44.922,-41.504,-55.664
1790598812.289009,-38.574,-48.340,-37.109,-18.066
1790598812.293324,22.461,-47.852,-38.574,17.090
1790598812.297198,-23.926,-40.039,-39.551,-39.062
1790598812.301072,-81.543,-34.180,-35.645,-38.574
1790598812.304945,-39.551,-34.668,-35.645,-21.973
1790598812.308819,34.668,-34.668,-38.574,-37.598
1790598812.312693,12.207,-30.762,-45.410,-23.926
1790598812.316567,-78.613,-30.273,-58.105,-66.895
1790598812.320441,-89.844,-25.879,-66.895,-73.242
1790598812.324315,-6.348,-25.879,-51.758,-0.977
1790598812.328188,29.297,-33.691,-32.227,2.930
1790598812.332062,-77.148,-41.016,-40.039,-56.641
1790598812.335936,-123.047,-45.410,-53.223,-81.055
1790598812.340240,-41.504,-46.387,-45.410,-29.785
1790598812.344114,7.324,-38.574,-33.691,-32.227
1790598812.347988,-44.922,-32.715,-38.574,-77.148
1790598812.351862,-71.289,-29.785,-48.340,-48.828
1790598812.355736,-34.668,-28.320,-40.527,-34.668
1790598812.359610,2.930,-34.180,-29.297,-30.273
1790598812.363484,-33.691,-31.738,-33.203,-10.254
1790598812.367358,-84.473,-28.809,-42.480,-46.875
1790598812.371232,-51.270,-30.273,-36.621,-61.035
1790598812.375106,18.066,-30.762,-20.508,-19.043
1790598812.378980,11.719,-31.250,-25.391,3.418
1790598812.382854,-67.383,-22.949,-32.715,-28.809
1790598812.387112,-78.613,-19.531,-32.227,-39.062
1790598812.390986,-0.488,-20.020,-30.762,22.949
1790598812.394861,40.039,-17.090,-46.387,22.949
1790598812.398735,-20.020,-19.531,-50.781,-40.039
1790598812.402609,-62.012,-25.391,-27.832,-44.922
1790598812.406483,-43.945,-29.785,-8.789,7.812
1790598812.410357,13.184,-32.227,1.953,-2.441
1790598812.414232,-34.180,-40.039,7.324,-48.828
1790598812.418106,-105.957,-46.875,18.066,-34.180
1790598812.421980,-66.895,-45.410,27.344,-56.641
1790598812.425854,6.836,-41.504,27.832,-26.855
1790598812.429729,-21.973,-48.340,20.996,-41.016
1790598812.433939,-110.840,-57.129,17.090,-35.645
1790598812.437814,-107.910,-62.012,24.902,-25.879
1790598812.441688,-33.691,-70.801,16.602,-59.570
1790598812.445562,-28.320,-75.684,1.953,-22.949
1790598812.449437,-106.445,-76.172,7.324,-20.508
1790598812.453311,-98.633,-68.848,7.812,-56.641
1790598812.457186,-23.438,-62.500,2.930,-44.434
1790598812.461060,0.000,-65.918,-6.836,-8.301
1790598812.464934,-72.754,-57.617,-16.602,-17.090
1790598812.468809,-93.750,-52.246,-13.672,-37.109
1790598812.472683,-43.457,-59.082,-10.254,-57.129
1790598812.476557,6.348,-57.129,-17.578,-14.160
1790598812.480817,-31.738,-54.199,-19.043,-38.086
1790598812.484692,-98.145,-51.270,-14.160,-41.504
1790598812.488566,-57.617,-46.875,-15.137,5.859
1790598812.492441,17.090,-45.898,-11.719,-0.977
1790598812.496315,1.465,-44.922,-14.648,8.789
1790598812.500190,-70.801,-44.434,-17.578,-37.109
1790598812.504065,-59.082,-44.434,-15.625,-74.219
1790598812.507939,-6.348,-47.852,-13.184,-8.789
1790598812.511814,-7.324,-54.688,-14.160,-20.508
1790598812.515688,-64.453,-55.664,-20.020,-27.344
1790598812.519563,-83.008,-52.734,-17.090,-49.316
1790598812.523437,-41.016,-53.711,-12.695,-15.625
1790598812.527603,7.324,-53.223,-16.113,47.852
1790598812.531477,-44.434,-48.340,-27.344,-49.805
1790598812.535352,-84.961,-42.480,-33.691,-87.402
1790598812.539227,-38.574,-39.062,-29.297,-41.504
1790598812.543102,8.301,-45.410,-31.250,-8.789
1790598812.546976,-26.367,-55.664,-36.621,-22.461
1790598812.550851,-79.102,-47.363,-34.180,-43.945
1790598812.554726,-55.176,-41.504,-28.809,1.953
1790598812.558601,12.695,-41.992,-24.902,22.461
1790598812.562475,6.348,-41.992,-36.133,-17.578
1790598812.566350,-66.406,-41.504,-41.016,-41.504
1790598812.570225,-64.453,-40.527,-29.297,-17.090
1790598812.574373,-8.301,-35.156,-13.672,2.930
1790598812.578248,19.043,-30.762,-27.832,0.977
1790598812.582123,-36.621,-34.180,-47.363,-37.598
1790598812.585998,-72.754,-32.715,-38.086,-54.199
1790598812.589873,-31.738,-32.715,-32.227,-25.879
1790598812.593748,13.672,-30.273,-30.762,5.859
1790598812.597623,-29.297,-25.391,-38.086,-39.062
1790598812.601497,-74.219,-27.344,-35.156,-15.137
1790598812.605372,-38.086,-30.273,-24.414,41.504
1790598812.609247,22.949,-29.297,-26.367,1.465
1790598812.613122,-18.066,-27.344,-36.621,-10.254
1790598812.616997,-100.586,-30.762,-30.762,-32.715
1790598812.621359,-67.871,-34.668,-27.832,-31.738
1790598812.625234,16.113,-28.320,-32.715,-4.883
1790598812.629109,6.836,-26.855,-33.203,-5.371
1790598812.632984,-66.895,-27.832,-42.969,-32.715
1790598812.636859,-64.453,-28.320,-44.922,-61.035
1790598812.640734,0.000,-31.738,-43.945,-19.531
1790598812.644610,15.137,-30.273,-43.945,2.930
1790598812.648485,-58.594,-31.250,-40.039,-45.410
1790598812.652360,-79.590,-33.203,-52.734,-66.895
1790598812.656235,-19.043,-31.250,-60.059,-22.461
1790598812.660110,15.137,-40.039,-46.387,3.418
1790598812.663985,-46.875,-42.480,-41.992,-31.738
1790598812.668303,-80.078,-36.133,-42.480,-69.336
1790598812.672178,-54.688,-38.086,-42.480,-28.809
1790598812.676053,0.000,-34.180,-29.785,15.625
1790598812.679929,0.000,-23.926,-19.531,-3.906
1790598812.683804,-61.035,-22.461,-23.438,-24.414
1790598812.687679,-53.223,-25.391,-24.414,-20.996
1790598812.691554,6.836,-23.438,-20.020,25.879
1790598812.695430,24.414,-25.879,-16.113,23.926
1790598812.699305,-36.133,-24.902,-15.625,-11.719
1790598812.703180,-64.941,-28.320,-15.625,-12.207
1790598812.707056,-5.859,-30.762,-16.113,0.000
1790598812.710931,40.527,-22.949,-29.297,-13.184
1790598812.715208,-36.621,-29.297,-36.621,-39.551
1790598812.719083,-84.961,-35.645,-26.855,-28.809
1790598812.722959,-31.738,-26.367,-21.973,-22.949
1790598812.726834,41.016,-20.996,-23.438,10.254
1790598812.730710,0.977,-23.438,-27.832,7.324
1790598812.734585,-83.496,-33.203,-37.598,-68.848
1790598812.738461,-61.523,-40.039,-38.086,-48.828
1790598812.742336,23.926,-26.855,-41.504,35.156
1790598812.746212,16.602,-15.137,-42.480,40.039
1790598812.750087,-65.918,-32.715,-30.762,-39.551
1790598812.753963,-62.988,-37.598,-43.457,-45.898
1790598812.757838,5.371,-30.273,-39.551,-2.441
1790598812.762075,19.043,-21.973,-20.508,12.695
1790598812.765951,-53.711,-16.602,-41.992,-19.531
1790598812.769826,-67.383,-25.391,-52.246,-80.566
1790598812.773702,1.465,-18.555,-33.203,-49.805
1790598812.777578,22.461,-16.113,-85.938,13.672
1790598812.781453,-72.266,-45.898,-77.637,-37.598
1790598812.785329,-101.074,-46.875,21.484,-74.707
1790598812.789205,-30.762,-32.227,35.156,-3.906
1790598812.793080,18.066,-38.086,19.531,17.090
1790598812.796956,-32.715,-39.551,0.977,-50.781
1790598812.800832,-99.609,-45.410,-11.719,-55.176
1790598812.804708,-81.543,-48.340,-20.508,-33.203
1790598812.808925,-12.207,-41.992,-35.156,-31.738
1790598812.812801,-5.859,-37.109,-44.922,-38.574
1790598812.816677,-74.707,-32.227,-47.363,-51.270
1790598812.820553,-91.309,-40.039,-48.340,-59.082
1790598812.824429,-35.645,-40.039,-38.086,-41.016
1790598812.828305,6.836,-30.762,-23.438,-2.930
1790598812.832180,-62.988,-38.574,-35.645,-49.316
1790598812.836056,-96.191,-45.898,-46.387,-47.852
1790598812.839932,-41.504,-42.969,-38.574,-16.602
1790598812.843808,-3.906,-40.039,-39.551,-21.484
1790598812.847684,-56.152,-41.016,-51.270,-45.410
1790598812.851559,-111.816,-43.457,-61.523,-72.754
1790598812.855724,-70.801,-38.086,-54.199,-71.777
1790598812.859600,2.441,-36.133,-47.363,-21.973
1790598812.863476,-22.949,-39.062,-59.082,-1.465
1790598812.867352,-84.473,-40.527,-66.406,-31.250
1790598812.871228,-74.219,-39.551,-60.547,-79.590
1790598812.875104,-3.418,-33.691,-62.012,-55.176
1790598812.878980,3.418,-37.109,-81.055,-24.902
1790598812.882856,-73.242,-42.969,-82.520,-73.730
1790598812.886732,-84.961,-39.551,-65.918,-63.477
1790598812.890608,-21.973,-39.062,-53.223,-19.531
1790598812.894484,20.020,-38.086,-51.270,4.883
1790598812.898360,-42.480,-31.738,-63.965,-0.977
1790598812.902554,-72.266,-31.250,-57.129,-39.062
1790598812.906430,-24.902,-38.574,-47.363,-17.578
1790598812.910306,24.414,-38.574,-54.199,-1.953
1790598812.914182,-27.344,-39.551,-55.664,-31.250
1790598812.918059,-88.867,-47.852,-58.105,-43.945
1790598812.921935,-62.988,-52.734,-67.871,-28.320
1790598812.925811,-0.977,-46.387,-61.035,-22.461
1790598812.929687,-15.625,-32.227,-41.504,-31.250
1790598812.933563,-85.938,-35.645,-42.480,-29.785
1790598812.937439,-60.547,-42.480,-50.293,-20.020
1790598812.941315,22.461,-23.438,-46.387,34.180
1790598812.945191,10.742,-16.113,-51.270,26.855
1790598812.949314,0.000,-28.320,-65.918,-77.148
1790598812.953191,0.000,-44.922,-75.195,-83.496
1790598812.957067,0.000,-41.992,-70.312,-34.180
1790598812.960943,0.000,-26.367,-62.500,-1.953
1790598812.964819,0.000,-27.344,-69.336,-19.531
1790598812.968696,0.000,-23.926,-69.336,-40.527
1790598812.972572,0.000,-32.715,-65.430,-2.441
1790598812.976448,0.000,-46.387,-52.734,41.992
1790598812.980324,0.000,-42.480,-51.758,-38.574
1790598812.984200,0.000,-26.367,-70.312,-63.477
1790598812.988077,0.000,-21.484,-68.359,-37.598
1790598812.991953,0.000,-26.855,-61.523,-25.879
1790598812.996268,-20.020,-31.738,-64.453,-38.086
1790598813.000144,-83.496,-28.320,-70.801,-62.012
1790598813.004021,-71.777,-29.785,-68.848,-58.594
1790598813.007897,-18.066,-37.598,-66.406,-39.062
1790598813.011774,2.930,-39.551,-73.730,-29.297
1790598813.015650,-61.523,-35.645,-74.707,-64.453
1790598813.019527,-94.238,-40.527,-71.289,-12.695
1790598813.023403,-39.062,-43.457,-59.570,10.254
1790598813.027280,20.996,-29.785,-58.594,-54.688
1790598813.031156,-36.133,-25.879,-73.242,-54.688
1790598813.035033,-89.844,-24.414,-69.824,-64.941
1790598813.038909,-51.270,-28.809,-62.500,-34.668
1790598813.043222,19.043,-23.926,-74.219,-4.395
1790598813.047098,-4.883,-17.578,-75.684,-45.410
1790598813.050975,-74.219,-19.531,-56.641,-50.293
1790598813.054852,-54.688,-28.320,-57.617,-42.969
1790598813.058728,12.695,-39.551,-59.570,-33.691
1790598813.062605,10.254,-36.621,-56.641,-21.973
1790598813.066482,-73.730,-35.156,-59.082,-66.406
1790598813.070358,-87.402,-33.691,-58.594,-34.668
1790598813.074235,-17.090,-34.180,-58.594,8.789
1790598813.078112,6.836,-39.062,-70.312,-20.996
1790598813.081988,-57.129,-33.203,-74.707,-78.125
1790598813.085865,-80.566,-38.086,-69.336,-86.914
1790598813.090132,0.000,-34.668,-64.941,-39.062
1790598813.094008,0.000,-27.832,-57.617,5.371
1790598813.097885,0.000,-26.855,-57.617,-19.531
1790598813.101762,0.000,-30.273,-67.871,-70.312
1790598813.105639,0.000,-36.133,-62.500,-32.227
1790598813.109516,0.000,-25.391,-36.133,-5.859
1790598813.113393,0.000,-24.414,-33.691,8.789
1790598813.117270,0.000,-26.855,-48.828,-34.180
1790598813.121146,0.000,-26.855,-57.129,-58.594
1790598813.125023,0.000,-21.484,-48.828,-16.602
1790598813.128900,0.000,-22.461,-47.852,1.953
1790598813.132777,0.000,-33.691,-51.270,-6.348
1790598813.137000,-62.012,-27.344,-50.293,-44.434
1790598813.140877,-19.043,-20.508,-49.316,-35.645
1790598813.144754,-11.719,-22.461,-65.918,-39.551
1790598813.148631,-70.312,-26.855,-95.215,-83.496
1790598813.152508,-102.539,-23.438,-94.727,-136.719
1790598813.156385,-49.805,-10.742,-89.844,-92.773
1790598813.160262,14.160,-5.371,-101.074,-36.621
1790598813.164139,-36.621,-9.277,-110.352,-60.059
1790598813.168016,-103.516,-8.789,-118.652,-109.863
1790598813.171893,-77.148,-6.348,-129.883,-102.051
1790598813.175770,4.395,-8.301,-122.070,-36.133
1790598813.179647,0.977,-3.418,-123.047,-39.551
1790598813.183846,-77.637,-1.465,-122.559,-86.426
1790598813.187723,-73.730,0.488,-114.746,-78.613
1790598813.191600,10.254,4.883,-108.887,-27.832
1790598813.195477,41.016,8.301,-104.980,-21.484
1790598813.199355,-37.598,1.465,-114.746,-73.242
1790598813.203232,-64.941,0.000,-110.352,-73.730
1790598813.207109,-13.184,0.000,-96.680,-22.949
1790598813.210986,34.180,-5.859,-95.215,34.668
1790598813.214863,-22.461,-7.324,-92.285,-19.531
1790598813.218740,-74.707,-6.836,-86.914,-89.355
1790598813.222617,-27.832,-9.766,-92.285,-32.227
1790598813.226495,34.180,-9.277,-92.773,-3.418
1790598813.230670,-6.348,-13.672,-86.426,-39.062
1790598813.234548,-72.266,-24.902,-90.820,-58.105
1790598813.238425,-39.551,-20.508,-95.703,-45.898
1790598813.242302,39.551,-17.578,-83.984,21.973
1790598813.246180,39.062,-22.461,-83.008,1.465
1790598813.250057,-41.992,-24.414,-83.008,-70.312
1790598813.253934,-44.922,-18.555,-81.055,-45.898
1790598813.257811,10.742,-17.578,-81.055,-7.324
1790598813.261689,22.949,-20.508,-72.754,-0.488
1790598813.265566,-24.414,-17.578,-80.566,-46.875
1790598813.269443,-43.945,-16.602,-86.426,-62.012
1790598813.273320,-5.371,-16.113,-80.566,-7.324
1790598813.277462,21.973,-15.137,-70.312,10.254
1790598813.281340,-23.438,-21.484,-78.125,-46.387
1790598813.285217,-89.844,-33.691,-85.449,-75.684
1790598813.289094,-61.035,-35.645,-76.660,-50.781
1790598813.292972,23.926,-29.297,-72.266,-20.996
1790598813.296849,-10.742,-26.855,-77.637,-29.785
1790598813.300727,-69.824,-22.461,-73.242,-26.367
1790598813.304604,-40.527,-20.020,-62.988,-16.113
1790598813.308481,20.508,-18.555,-49.805,12.207
1790598813.312359,7.812,-19.531,-48.340,-1.953
1790598813.316236,-73.730,-19.531,-63.965,-67.383
1790598813.320113,-69.336,-19.531,-65.430,-70.312
1790598813.324216,-1.465,-24.414,-58.594,-39.062
1790598813.328094,20.020,-28.320,-65.430,-30.762
1790598813.331971,-55.176,-41.016,-72.266,-69.824
1790598813.335849,-93.262,-48.828,-66.895,-79.102
1790598813.339726,-49.316,-38.086,-56.152,-45.410
1790598813.343604,15.137,-29.785,-48.828,1.953
1790598813.347481,-26.855,-30.762,-47.852,-4.395
1790598813.351359,-94.238,-37.598,-42.480,-56.641
1790598813.355236,-63.965,-42.969,-39.551,-24.902
1790598813.359113,11.719,-38.086,-36.133,17.578
1790598813.362991,3.418,-33.691,-31.250,-45.410
1790598813.366868,-86.426,-38.574,-38.574,-84.961
1790598813.371172,-72.266,-39.062,-38.574,-45.410
1790598813.375049,-1.465,-37.109,-26.367,-1.953
1790598813.378927,-3.906,-37.598,-21.484,39.062
1790598813.382805,-73.730,-41.016,-22.461,-31.738
1790598813.386682,-79.102,-33.203,-26.367,-81.055
1790598813.390560,-4.395,-22.461,-27.832,-13.672
1790598813.394438,25.391,-26.367,-23.926,-2.441
1790598813.398315,-50.293,-27.832,-25.391,-42.480
1790598813.402193,-84.961,-25.391,-33.203,-35.645
1790598813.406071,-33.691,-30.762,-29.785,0.488
1790598813.409948,19.043,-29.297,-27.832,-26.855
1790598813.413826,-30.762,-28.320,-39.062,-62.988
1790598813.418110,-83.496,-31.738,-28.809,-31.250
1790598813.421988,-54.688,-31.250,-19.043,-16.113
1790598813.425866,9.766,-30.273,-16.602,-15.137
1790598813.429744,7.324,-23.438,-13.184,-20.996
1790598813.433621,-63.477,-25.391,-19.043,-68.359
1790598813.437499,-70.312,-30.762,-20.996,-55.176
1790598813.441377,-6.348,-34.668,-16.602,0.000
1790598813.445255,24.902,-28.320,-22.461,15.625
1790598813.449133,-45.898,-16.602,-34.668,-21.973
1790598813.453011,-80.566,-17.578,-26.367,-52.246
1790598813.456888,-17.578,-20.020,-8.789,19.531
1790598813.460766,49.805,-19.531,-8.789,36.133
1790598813.465013,-28.809,-22.949,-19.043,-25.879
1790598813.468891,-84.473,-28.809,-13.184,-36.621
1790598813.472769,-25.391,-29.297,-10.254,-44.922
1790598813.476647,29.785,-21.484,-27.832,-12.207
1790598813.480525,2.930,-18.555,-37.598,-22.461
1790598813.484403,-79.590,-30.762,-21.973,-52.246
1790598813.488281,-81.055,-40.039,-22.461,-43.457
1790598813.492159,-13.672,-44.434,-24.902,-10.742
1790598813.496037,-7.324,-31.738,-17.090,-27.832
1790598813.499916,-84.961,-29.297,-19.531,-20.996
1790598813.503793,-87.891,-39.551,-22.461,-32.227
1790598813.507672,-15.137,-42.969,-22.461,-43.945
1790598813.511874,13.184,-39.062,-21.973,28.320
1790598813.515753,-49.805,-34.668,-43.945,-19.531
1790598813.519631,-82.031,-29.297,-48.340,-62.012
1790598813.523509,-27.832,-26.855,-19.531,-35.156
1790598813.527387,24.902,-33.691,-18.555,-17.090
1790598813.531265,-25.391,-37.598,-38.086,-55.176
1790598813.535143,-91.797,-41.504,-40.039,-50.781
1790598813.539021,-52.246,-41.992,-25.879,-17.578
1790598813.542900,17.578,-39.062,-20.020,-20.020
1790598813.546778,-14.160,-39.062,-21.973,-22.461
1790598813.550656,-94.238,-40.527,-28.809,-49.316
1790598813.554534,-74.219,-30.762,-23.438,-43.457
1790598813.558710,8.789,-26.855,-22.461,-11.230
1790598813.562588,9.277,-29.785,-30.273,-7.324
1790598813.566466,-68.848,-30.273,-28.809,-31.738
1790598813.570345,-70.801,-26.367,-27.832,-34.668
1790598813.574223,-12.695,-29.785,-36.133,-18.555
1790598813.578101,14.160,-37.109,-35.156,-0.977
1790598813.581980,-41.992,-37.109,-35.156,-36.133
1790598813.585858,-69.824,-38.574,-39.062,-59.082
1790598813.589736,-26.855,-35.156,-26.367,-24.902
1790598813.593614,11.230,-42.969,-28.320,4.883
1790598813.597493,-36.621,-51.758,-43.945,-18.066
1790598813.601371,-99.609,-50.293,-51.758,-58.594
1790598813.605531,-71.289,-51.758,-46.387,-57.129
1790598813.609409,-0.488,-56.641,-52.734,-31.250
1790598813.613287,-11.719,-57.617,-71.289,26.367
1790598813.617166,-70.312,-55.176,-60.059,-0.488
1790598813.621044,-80.078,-57.129,-32.227,-64.941
1790598813.624923,-25.391,-59.570,-26.367,-47.852
1790598813.628801,-16.113,-66.895,-28.809,-8.789
1790598813.632679,-85.938,-67.383,-28.320,-44.922
1790598813.636558,-95.215,-65.918,-15.625,-90.820
1790598813.640436,-59.082,-75.195,-17.578,-45.898
1790598813.644315,-19.043,-75.684,-22.949,-12.207
1790598813.648193,-67.383,-67.383,-23.926,-29.297
1790598813.652328,-108.887,-65.918,-24.414,-54.688
1790598813.656207,-55.176,-68.359,-17.090,-51.758
1790598813.660085,-6.348,-71.289,-17.578,9.766
1790598813.663964,-51.758,-75.195,-20.020,-33.691
1790598813.667843,-112.305,-77.637,-20.508,-62.988
1790598813.671721,-82.031,-73.242,-20.996,-24.902
1790598813.675600,-9.277,-67.871,-15.137,-10.742
1790598813.679478,-2.930,-64.453,-10.742,-0.488
1790598813.683357,-72.266,-60.059,-14.648,-9.277
1790598813.687235,-79.102,-58.105,-24.902,-55.664
1790598813.691114,-13.672,-59.570,-33.691,-18.066
1790598813.694992,7.324,-63.477,-43.945,8.789
1790598813.699106,-60.059,-63.965,-51.270,-25.879
1790598813.702984,-94.727,-65.918,-50.781,-13.184
1790598813.706863,-38.574,-65.430,-50.293,15.137
1790598813.710742,16.602,-57.617,-46.875,12.695
1790598813.714620,-31.738,-53.223,-49.805,-27.344
1790598813.718499,-72.266,-51.270,-52.734,-62.500
1790598813.722378,-44.434,-49.316,-47.363,-26.367
1790598813.726256,7.812,-57.129,-53.711,3.906
1790598813.730135,-20.020,-59.082,-63.477,-12.695
1790598813.734013,-66.895,-50.293,-55.176,-12.695
1790598813.737892,-51.758,-46.387,-46.387,-35.156
1790598813.741771,-5.859,-43.945,-50.293,4.883
1790598813.746061,-8.789,-49.316,-55.176,19.531
1790598813.749940,-68.359,-48.340,-64.941,-31.250
1790598813.753819,-76.172,-45.898,-75.195,-45.410
1790598813.757698,-14.160,-52.246,-67.383,-19.531
1790598813.761577,32.715,-47.852,-63.477,17.090
1790598813.765455,-28.320,-38.086,-69.336,-10.742
1790598813.769334,-68.359,-38.574,-54.688,-54.199
1790598813.773213,-9.277,-45.410,-40.039,-17.090
1790598813.777092,42.969,-49.805,-49.316,25.879
1790598813.780971,-13.672,-46.875,-58.594,-6.836
1790598813.784849,-71.777,-40.039,-55.664,-14.160
1790598813.788728,-46.875,-35.156,-63.965,-7.812
1790598813.792984,16.113,-36.621,-65.918,-4.395
1790598813.796863,8.301,-36.621,-67.871,3.418
1790598813.800742,-58.594,-37.109,-74.219,-61.523
1790598813.804621,-51.758,-41.992,-67.871,-69.336
1790598813.808500,15.137,-45.410,-66.895,-3.418
1790598813.812379,31.738,-35.645,-69.824,0.488
1790598813.816258,-47.852,-29.297,-71.289,-30.273
1790598813.820137,-63.477,-30.762,-65.918,-26.367
1790598813.824016,14.160,-33.691,-59.082,1.465
1790598813.827894,41.016,-37.598,-60.547,12.695
1790598813.831774,-32.227,-37.109,-66.895,-41.992
1790598813.835653,-75.195,-40.527,-67.383,-41.504
1790598813.839883,-41.016,-43.945,-65.918,-31.250
1790598813.843762,16.113,-47.363,-58.594,-2.441
1790598813.847641,-28.809,-50.293,-56.641,-23.926
1790598813.851521,-90.332,-45.410,-61.523,-46.387
1790598813.855400,-38.574,-44.922,-58.105,-16.113
1790598813.859279,26.855,-45.898,-59.082,-10.742
1790598813.863158,-3.418,-46.387,-62.500,-35.645
1790598813.867037,-67.871,-42.480,-60.547,-47.363
1790598813.870916,-62.500,-36.621,-54.199,-6.836
1790598813.874795,4.395,-46.875,-52.246,-22.461
1790598813.878674,28.809,-46.387,-62.988,-48.828
1790598813.882554,-46.387,-41.016,-67.871,-46.387
1790598813.886776,-78.125,-47.363,-60.547,-45.898
1790598813.890655,-23.438,-46.875,-50.293,-27.344
1790598813.894535,34.668,-43.457,-42.969,25.879
1790598813.898414,-24.414,-46.387,-49.316,6.836
1790598813.902293,-72.754,-45.898,-59.570,-53.711
1790598813.906172,-24.902,-43.945,-60.059,-33.203
1790598813.910052,19.531,-45.898,-65.918,-3.906
1790598813.913931,-16.113,-43.457,-73.242,-18.066
1790598813.917810,-89.844,-41.504,-63.965,-43.945
1790598813.921690,-72.266,-44.434,-56.152,-20.020
1790598813.925569,2.930,-43.945,-59.082,-9.277
1790598813.929448,8.301,-38.086,-66.406,-48.828
1790598813.933634,-77.148,-45.898,-68.848,-74.707
1790598813.937514,-94.727,-50.781,-63.965,-105.957
1790598813.941393,-9.766,-41.016,-58.105,-18.555
1790598813.945272,37.109,-31.738,-52.246,5.371
1790598813.949152,-49.805,-28.809,-54.688,-79.590
1790598813.953031,-92.773,-30.762,-54.199,-80.078
1790598813.956911,-28.320,-34.180,-46.387,-41.016
1790598813.960790,11.230,-37.109,-50.293,-17.090
1790598813.964669,-44.922,-47.363,-49.805,-45.410
1790598813.968549,-88.867,-50.293,-49.316,-68.848
1790598813.972428,-49.316,-39.062,-59.082,-50.781
1790598813.976307,18.555,-29.785,-60.547,-19.531
1790598813.980465,0.977,-26.367,-58.594,-41.992
1790598813.984344,-73.242,-28.809,-62.988,-70.312
1790598813.988224,-61.523,-27.344,-65.918,9.766
1790598813.992103,11.230,-26.367,-57.129,27.344
1790598813.995983,5.859,-26.855,-51.270,-58.594
1790598813.999862,-69.824,-24.902,-65.430,-65.918
1790598814.003742,-72.266,-19.531,-74.219,-53.223
1790598814.007622,-10.254,-17.090,-63.965,-40.527
1790598814.011501,21.484,-22.949,-58.105,-29.297
1790598814.015380,-53.223,-33.691,-72.754,-64.941
1790598814.019260,-85.449,-25.391,-72.754,-61.523
1790598814.023139,-19.531,-17.090,-61.035,-24.902
1790598814.027263,7.324,-31.738,-70.312,-18.066
1790598814.031143,-40.527,-39.551,-94.727,-39.551
1790598814.035022,-80.566,-30.762,-97.168,-52.246
1790598814.038902,-59.570,-20.020,-67.383,-22.949
1790598814.042782,20.996,-22.461,-56.152,-0.488
1790598814.046661,4.883,-31.738,-69.824,-45.410
1790598814.050541,-91.797,-29.297,-73.730,-59.082
1790598814.054421,-71.777,-27.344,-50.781,-38.574
1790598814.058300,9.277,-31.250,-50.781,-39.551
1790598814.062180,20.020,-34.668,-73.242,-17.090
1790598814.066059,-55.664,-40.527,-66.406,-35.156
1790598814.069939,-67.383,-37.109,-49.316,-43.457
1790598814.074037,-1.465,-34.668,-51.758,-37.109
1790598814.077916,14.160,-33.691,-56.152,-25.879
1790598814.081796,-59.082,-33.203,-59.082,-51.758
1790598814.085676,-94.727,-38.574,-62.500,-29.785
1790598814.089556,-39.551,-29.785,-60.059,-1.465
1790598814.093435,37.109,-22.949,-60.059,-23.926
1790598814.097315,7.324,-23.438,-62.012,-38.574
1790598814.101195,-60.547,-19.043,-61.035,-60.547
1790598814.105074,-38.574,-20.996,-50.293,-20.996
1790598814.108954,18.066,-31.250,-52.246,1.465
1790598814.112834,3.418,-30.762,-65.918,-41.992
1790598814.116713,-78.125,-32.227,-68.848,-62.500
1790598814.121008,-72.266,-33.691,-70.801,-44.434
