timestamp,TP9,AF7,AF8,TP10
1790600225.227344,-0.488,0.000,-0.488,0.000
1790600225.231204,-0.488,0.000,-3.906,-0.488
1790600225.235063,1.953,-1.953,28.320,0.000
1790600225.238923,-5.371,2.930,-94.727,-0.488
1790600225.242783,18.555,-13.672,352.539,-0.977
1790600225.246642,49.805,-50.293,361.328,10.254
1790600225.250502,-8.301,-40.039,-286.621,5.371
1790600225.254361,-82.520,-29.785,-175.293,-36.133
1790600225.258221,-50.781,-31.250,-102.051,-49.805
1790600225.262080,14.160,-33.691,-73.242,-21.973
1790600225.265940,-38.086,-41.504,-85.449,-30.762
1790600225.269799,-106.445,-42.969,-95.703,-55.176
1790600225.272488,-59.082,-52.734,-66.406,-44.434
1790600225.276250,35.645,-58.105,-70.312,-12.207
1790600225.280012,-8.301,-51.758,-94.727,-24.902
1790600225.283774,-98.633,-43.945,-89.355,-57.617
1790600225.287536,-57.129,-51.270,-103.027,-40.039
1790600225.291298,38.086,-59.570,-147.461,-9.766
1790600225.295060,21.484,-55.176,-163.574,-25.391
1790600225.298822,-72.754,-46.387,-161.133,-60.059
1790600225.302584,-87.402,-26.855,-166.504,-61.035
1790600225.306346,-9.277,-40.039,-188.477,-32.227
1790600225.310108,19.043,-51.758,-203.125,-22.949
1790600225.313870,-65.430,-22.949,-178.223,-47.363
1790600225.314162,-97.168,-23.438,-207.031,-59.570
1790600225.317779,-28.320,-51.270,-228.027,-41.504
1790600225.321397,36.621,-55.176,-230.957,-14.160
1790600225.325014,-38.574,-37.109,-252.441,-41.016
1790600225.328631,-97.656,-37.109,-297.363,-63.477
1790600225.332249,-33.691,-39.551,-305.664,-38.574
1790600225.335866,37.598,-37.598,-294.922,-13.184
1790600225.339483,-4.883,-44.434,-332.031,-31.250
1790600225.343101,-95.215,-25.391,-373.047,-52.246
1790600225.346718,-72.266,-16.602,-351.562,-42.969
1790600225.350336,30.273,-23.926,-340.820,-26.367
1790600225.353953,30.762,-28.809,-407.227,-26.367
1790600225.352566,-73.242,-34.180,-413.574,-50.293
1790600225.356045,-80.566,-37.598,-378.906,-60.547
1790600225.359523,10.742,-25.879,-387.695,-30.762
1790600225.363002,47.852,-27.344,-393.066,-5.859
1790600225.366480,-38.086,-41.016,-373.047,-28.320
1790600225.369958,-89.844,-29.785,-387.695,-54.688
1790600225.373437,-23.438,-22.461,-404.785,-32.715
1790600225.376915,41.504,-33.203,-382.324,-17.090
1790600225.380394,-20.020,-30.762,-294.434,-42.480
1790600225.383872,-88.867,-28.320,-285.156,-57.617
1790600225.387350,-49.805,-29.297,-305.176,-45.898
1790600225.390829,33.203,-32.715,-275.879,-17.578
1790600225.390804,6.348,-34.668,-271.484,-35.645
1790600225.394209,-91.309,-29.297,-289.062,-63.477
1790600225.397614,-83.984,-25.879,-275.391,-49.316
1790600225.401020,22.949,-24.414,-219.238,-20.020
1790600225.404425,36.133,-38.086,-222.168,-20.996
1790600225.407831,-76.172,-39.551,-232.910,-63.965
1790600225.411236,-102.051,-33.691,-207.031,-67.383
1790600225.414641,-14.160,-38.574,-180.664,-26.367
1790600225.418047,39.551,-32.227,-183.105,-12.207
1790600225.421452,-47.852,-34.180,-162.109,-49.805
1790600225.424858,-103.516,-32.715,-123.047,-71.777
1790600225.428263,-47.852,-33.691,-121.582,-48.340
1790600225.428501,22.461,-38.086,-118.652,-24.902
1790600225.431854,-17.090,-36.621,-93.262,-40.527
1790600225.435206,-114.746,-49.805,-87.891,-58.594
1790600225.438559,-81.543,-41.016,-118.652,-50.293
1790600225.441912,23.438,-33.203,-116.699,-15.625
1790600225.445264,33.203,-43.457,-101.074,7.324
1790600225.448617,-69.824,-36.621,-106.934,-43.457
1790600225.451969,-108.887,-38.574,-153.320,-69.336
1790600225.455322,-20.508,-41.504,-132.324,-33.203
1790600225.458675,20.508,-30.273,-70.801,-29.297
1790600225.462027,-72.266,-30.273,-93.262,-57.129
1790600225.465380,-105.469,-25.391,-106.934,-62.012
1790600225.468318,-35.156,-26.855,-79.102,-44.434
1790600225.471664,16.113,-40.527,-100.098,-26.367
1790600225.475011,-48.828,-36.621,-117.676,-54.199
1790600225.478358,-108.887,-28.809,-113.281,-70.312
1790600225.481705,-41.992,-20.508,-123.047,-26.855
1790600225.485052,44.434,-33.203,-169.922,-10.742
1790600225.488399,-2.930,-50.293,-205.566,-40.039
1790600225.491745,-90.820,-39.062,-197.266,-66.895
1790600225.495092,-74.707,-30.273,-204.590,-48.828
1790600225.498439,20.020,-17.578,-198.242,-16.602
1790600225.501786,33.691,-21.484,-167.969,-26.855
1790600225.505133,-72.266,-30.762,-152.832,-59.082
1790600225.508191,-84.473,-16.602,-182.617,-60.059
1790600225.511534,18.555,-11.719,-178.711,-23.438
1790600225.514878,47.852,-12.695,-152.344,-6.348
1790600225.518221,-46.875,-8.301,-135.742,-35.645
1790600225.521565,-91.797,-14.648,-144.531,-48.828
1790600225.524908,-11.230,-32.715,-147.461,-27.832
1790600225.528252,59.082,-31.738,-121.582,-15.625
1790600225.531595,-18.555,-23.438,-111.328,-45.410
1790600225.534939,-96.191,-30.762,-128.906,-59.082
1790600225.538282,-47.363,-41.504,-114.258,-28.809
1790600225.541625,39.062,-36.621,-96.191,-7.324
1790600225.544969,6.836,-32.227,-145.996,-15.625
1790600225.548074,-81.055,-27.344,-152.344,-42.480
1790600225.551414,-63.965,-14.160,-104.980,-43.945
1790600225.554755,18.555,-22.461,-113.281,-16.113
1790600225.558096,24.414,-30.762,-114.258,-12.695
1790600225.561437,-61.523,-46.387,-95.703,-42.969
1790600225.564778,-87.891,-51.270,-99.609,-50.781
1790600225.568119,-6.348,-39.551,-134.277,-10.254
1790600225.571460,44.434,-26.367,-130.371,-6.836
1790600225.574801,-33.203,-7.812,-50.293,-54.199
1790600225.578142,-86.914,-17.090,-75.684,-58.594
1790600225.581483,-27.344,-32.227,-96.191,-35.156
1790600225.584824,44.922,-31.738,-80.566,-13.672
1790600225.590173,-1.953,-25.391,-107.422,-28.320
1790600225.593532,-77.148,-23.926,-137.695,-40.527
1790600225.596892,-33.203,-19.531,-125.488,-19.531
1790600225.600251,56.641,-30.273,-110.352,9.766
1790600225.603611,32.227,-35.156,-146.973,4.395
1790600225.606971,-57.617,-14.160,-161.133,-35.645
1790600225.610330,-70.312,-6.348,-152.832,-32.227
1790600225.613689,11.230,-20.508,-124.512,5.859
1790600225.617049,33.691,-29.785,-171.387,1.953
1790600225.620409,-51.270,-29.785,-186.035,-27.832
1790600225.623768,-86.426,-32.715,-131.836,-44.922
1790600225.627128,-10.742,-37.598,-151.367,-24.414
1790600225.633800,48.340,-41.016,-172.852,-4.395
1790600225.637187,-34.180,-39.551,-145.996,-37.598
1790600225.640574,-91.309,-34.668,-167.969,-53.711
1790600225.643961,-38.086,-29.297,-207.031,-34.180
1790600225.647348,20.508,-22.949,-200.195,-27.344
1790600225.650736,-18.066,-15.137,-187.500,-41.016
1790600225.654123,-92.773,-13.672,-204.102,-66.895
1790600225.657510,-64.453,-28.809,-221.680,-62.500
1790600225.660897,27.832,-18.066,-212.402,-32.227
1790600225.664284,19.043,-17.578,-206.055,-28.809
1790600225.667671,-62.988,-30.762,-243.652,-53.223
1790600225.671058,-69.336,-24.414,-250.488,-55.176
1790600225.677386,7.812,-24.414,-200.195,-26.855
1790600225.680796,45.410,-32.715,-228.516,-16.113
1790600225.684205,-32.715,-20.508,-249.512,-38.574
1790600225.687614,-82.031,-21.484,-223.145,-56.152
1790600225.691024,-24.902,-32.227,-209.473,-28.809
1790600225.694433,27.344,-30.273,-248.535,4.395
1790600225.697843,-45.898,-39.062,-250.000,-26.367
1790600225.701252,-100.098,-41.992,-190.918,-53.711
1790600225.704662,-43.945,-34.668,-175.781,-29.785
1790600225.708071,41.016,-35.645,-220.215,3.906
1790600225.711480,-3.418,-41.992,-195.801,-13.184
1790600225.714890,-96.680,-47.363,-132.812,-45.410
1790600225.721220,-70.312,-24.902,0.000,-41.016
1790600225.724649,13.672,-10.742,0.000,-25.391
1790600225.728079,14.160,-10.254,0.000,-32.227
1790600225.731509,-69.824,-18.555,0.000,-59.570
1790600225.734939,-86.426,-25.879,0.000,-63.965
1790600225.738368,-8.301,-22.949,0.000,-37.598
1790600225.741798,21.973,-30.273,0.000,-23.438
1790600225.745228,-62.988,-31.250,0.000,-45.410
1790600225.748657,-100.098,-33.203,0.000,-44.922
1790600225.752087,-22.461,-38.086,0.000,-24.414
1790600225.755517,51.270,-20.996,0.000,-2.441
1790600225.758946,-17.578,-21.484,0.000,-26.855
1790600225.766170,0.000,-28.809,-27.832,-62.012
1790600225.769624,0.000,-31.738,-6.836,-41.992
1790600225.773078,0.000,-41.992,-14.160,-4.395
1790600225.776532,0.000,-45.898,-12.695,-19.043
1790600225.779986,0.000,-36.621,11.230,-42.480
1790600225.783440,0.000,-38.574,0.488,-32.715
1790600225.786894,0.000,-48.340,-21.973,-9.277
1790600225.790348,0.000,-33.203,6.836,-6.348
1790600225.793802,0.000,-23.926,69.336,-37.109
1790600225.797256,0.000,-46.387,25.391,-39.551
1790600225.800710,0.000,-44.434,2.441,-19.043
1790600225.804164,0.000,-21.484,13.184,-13.184
1790600225.806587,-91.309,-3.906,21.973,-40.039
1790600225.810035,-53.223,-23.438,2.930,-49.316
1790600225.813483,33.691,-48.340,2.441,-21.973
1790600225.816931,-0.977,-51.270,16.113,-9.766
1790600225.820379,-95.215,-29.297,5.371,-29.297
1790600225.823827,-79.102,-33.691,-24.902,-48.340
1790600225.827275,10.254,-51.270,-21.973,-37.109
1790600225.830723,22.461,-41.504,-1.953,2.441
1790600225.834170,-70.312,-36.621,-43.945,6.348
1790600225.837618,-86.426,-30.762,-11.230,-26.855
1790600225.841066,-4.883,-40.527,25.391,-57.617
1790600225.844514,34.668,-41.504,-19.531,-19.531
1790600225.851131,34.180,-15.625,-36.133,7.324
1790600225.854596,-60.059,-25.391,-32.227,-35.156
1790600225.858062,-91.797,-46.875,-28.809,-39.551
1790600225.861527,-28.809,-44.922,-68.359,-22.461
1790600225.864993,9.766,-55.664,-91.797,-10.254
1790600225.868459,-58.105,-72.266,-72.266,-39.062
1790600225.871924,-103.027,-66.895,-81.055,-63.477
1790600225.875389,-43.457,-60.547,-105.957,-39.062
1790600225.878855,28.809,-72.754,-83.984,-14.160
1790600225.882320,-21.973,-57.129,-61.035,-23.926
1790600225.885786,-106.445,-62.988,-98.633,-43.457
1790600225.889251,-82.520,-82.520,-94.238,-38.574
1790600225.896763,14.160,-81.055,-49.316,-5.859
1790600225.900250,4.395,-90.820,-58.105,-7.324
1790600225.903737,-82.031,-110.840,-67.383,-51.270
1790600225.907223,-83.496,-109.375,-69.336,-60.547
1790600225.910710,3.418,-105.469,-77.148,-25.391
1790600225.914196,32.227,-122.559,-111.816,-9.277
1790600225.917683,-65.430,-127.441,-99.121,-41.504
1790600225.921169,-109.863,-128.906,-33.691,-66.406
1790600225.924656,-36.133,-131.836,-0.488,-41.016
1790600225.928142,26.855,-143.555,15.625,-16.602
1790600225.931629,-43.457,-135.254,49.316,-41.992
1790600225.935116,-102.539,-127.441,60.547,-70.312
1790600225.942142,-39.551,-133.301,51.270,0.000
1790600225.945646,43.945,-140.137,71.289,0.000
1790600225.949150,-4.883,-141.602,86.914,0.000
1790600225.952654,-86.426,-144.531,71.777,0.000
1790600225.956158,-59.082,-155.273,62.500,0.000
1790600225.959662,-0.977,-152.832,66.406,0.000
1790600225.963166,-15.625,-178.223,69.824,0.000
1790600225.966670,-100.098,-204.102,51.270,0.000
1790600225.970173,-110.840,-195.801,37.598,0.000
1790600225.973677,-12.695,-178.223,86.426,0.000
1790600225.977181,41.504,-158.691,68.359,0.000
1790600225.980685,-47.363,-162.598,58.594,0.000
1790600225.988374,-108.887,-162.109,74.707,-72.754
1790600225.991897,-52.246,-159.668,64.453,-50.293
1790600225.995420,22.949,-165.527,38.574,-24.902
1790600225.998943,-39.551,-161.621,65.430,-39.551
1790600226.002467,-111.816,-148.438,99.609,-62.012
1790600226.005990,-65.430,-144.043,81.055,-50.781
1790600226.009513,24.902,-141.602,32.227,-14.160
1790600226.013036,-11.230,-146.484,46.875,-21.973
1790600226.016560,-105.957,-146.484,108.887,-57.129
1790600226.020083,-92.773,-132.324,66.406,-41.504
1790600226.023606,-15.137,-140.625,48.340,-20.508
1790600226.027130,10.742,-133.301,64.941,-30.273
1790600226.034220,-73.242,-114.746,63.477,-54.199
1790600226.037759,-99.609,-127.930,48.340,-57.129
1790600226.041298,-15.137,-145.508,53.223,-17.090
1790600226.044837,31.738,-129.883,67.871,4.395
1790600226.048376,-49.316,-103.516,45.898,-28.320
1790600226.051915,-101.074,-94.238,-1.465,-44.434
1790600226.055454,-35.156,-95.215,18.555,-29.297
1790600226.058993,41.016,-98.145,29.297,-15.625
1790600226.062532,-10.254,-111.816,-22.949,-24.414
1790600226.066071,-97.168,-108.398,-11.719,-43.945
1790600226.069609,-58.594,-103.027,44.922,-41.016
1790600226.073148,46.875,-114.258,30.762,-3.906
1790600226.080796,37.109,-92.285,11.719,-12.695
1790600226.084352,-60.547,-58.105,32.227,-51.270
1790600226.087908,-70.801,-84.961,26.367,-48.340
1790600226.091464,26.367,-87.402,27.344,2.930
1790600226.095020,56.152,-57.129,36.133,8.301
1790600226.098576,-62.500,-82.520,9.766,-57.129
1790600226.102132,-125.488,-102.051,-5.371,-85.938
1790600226.105688,-32.227,-124.512,9.766,-41.992
1790600226.109244,31.250,-110.840,38.574,-19.043
1790600226.112800,-49.805,-76.660,37.109,-51.758
1790600226.116356,-96.191,-52.246,12.207,-60.059
1790600226.119912,-41.016,-50.293,17.090,-47.363
1790600226.128384,0.000,-52.246,0.000,-14.648
1790600226.131959,0.000,-55.664,0.000,-30.762
1790600226.135535,0.000,-62.988,0.000,-62.500
1790600226.139110,0.000,-53.711,0.000,-36.621
1790600226.142686,0.000,-51.758,0.000,-29.297
1790600226.146261,0.000,-40.527,0.000,-65.918
1790600226.149837,0.000,-26.367,0.000,-103.516
1790600226.153413,0.000,-19.531,0.000,-113.281
1790600226.156988,0.000,-8.301,0.000,-118.164
1790600226.160564,0.000,-6.348,0.000,-140.625
1790600226.164139,0.000,6.348,0.000,-205.078
1790600226.167715,0.000,18.555,0.000,-258.301
1790600226.174262,-246.582,32.227,-603.027,-248.535
1790600226.177849,-207.520,35.645,-666.016,-241.211
1790600226.181436,-295.898,36.621,-719.727,-294.922
1790600226.185022,-392.578,22.949,-802.246,-340.820
1790600226.188609,-374.023,-18.066,-842.285,-346.191
1790600226.192196,-286.621,2.441,-835.449,-319.336
1790600226.195783,-309.570,-27.832,-847.656,-330.566
1790600226.199370,-395.020,-41.504,-836.426,-353.516
1790600226.202956,-366.699,20.508,-775.391,-333.496
1790600226.206543,-251.465,54.199,-681.641,-279.785
1790600226.210130,-213.867,38.086,-657.715,-248.535
1790600226.213717,-296.875,3.906,-664.551,-264.648
1790600226.221661,-304.688,4.395,-599.609,-243.164
1790600226.225263,-188.477,-17.090,-545.410,-190.918
1790600226.228866,-128.906,-29.785,-555.176,-171.387
1790600226.232469,-208.008,-11.719,-502.441,-196.777
1790600226.236071,-225.586,-22.949,-409.180,-190.430
1790600226.239674,-138.184,-36.621,-359.375,-139.648
1790600226.243276,-63.477,-46.387,-281.250,-100.586
1790600226.246879,-95.215,-66.895,-174.805,-104.980
1790600226.250482,-148.438,-72.266,-142.090,-100.098
1790600226.254084,-98.633,-61.035,-185.059,-68.359
1790600226.257687,3.906,-58.105,-181.641,-26.367
1790600226.261289,-2.930,-62.012,-94.238,-32.715
1790600226.267654,0.000,-69.336,-71.289,-58.594
1790600226.271267,0.000,-71.289,-78.613,-37.109
1790600226.274879,0.000,-71.777,-43.457,10.742
1790600226.278491,0.000,-76.172,-27.344,23.926
1790600226.282103,0.000,-81.055,-3.906,-0.977
1790600226.285715,0.000,-81.543,59.570,6.348
1790600226.289328,0.000,-72.754,153.320,42.969
1790600226.292940,0.000,-87.891,163.574,58.105
1790600226.296552,0.000,-106.445,171.387,27.832
1790600226.300164,0.000,-99.121,175.781,14.648
1790600226.303776,0.000,-77.148,181.641,45.898
1790600226.307389,0.000,-59.082,255.371,62.500
1790600226.313527,66.406,-58.105,301.758,41.016
1790600226.317148,-13.672,-62.500,280.273,22.949
1790600226.320769,21.484,-63.477,277.832,31.738
1790600226.324389,115.723,-69.336,307.129,73.242
1790600226.328010,118.164,-90.820,299.805,72.266
1790600226.331630,25.879,-92.285,244.629,34.668
1790600226.335251,2.441,-92.773,230.469,33.691
1790600226.338872,88.379,-80.566,261.230,73.242
1790600226.342492,138.672,-55.176,233.887,97.656
1790600226.346113,62.012,-59.082,176.270,64.453
1790600226.349733,9.277,-66.406,147.461,47.363
1790600226.353354,76.660,-69.336,181.641,65.918
1790600226.360429,0.000,-67.871,182.129,84.961
1790600226.364061,0.000,-65.918,142.578,53.223
1790600226.367692,0.000,-69.824,155.762,21.484
1790600226.371324,0.000,-73.730,207.031,38.574
1790600226.374956,0.000,-65.918,179.688,73.730
1790600226.378587,0.000,-58.105,149.902,57.617
1790600226.382219,0.000,-54.199,156.250,38.574
1790600226.385851,0.000,-55.664,147.461,40.527
1790600226.389482,0.000,-59.082,119.141,42.480
1790600226.393114,0.000,-72.754,84.473,44.434
1790600226.396746,0.000,-69.824,113.770,10.742
1790600226.400378,0.000,-54.688,124.512,3.418
1790600226.407266,60.547,-55.176,88.379,37.109
1790600226.410908,99.121,-56.152,73.242,49.316
1790600226.414550,12.207,-62.500,84.961,21.973
1790600226.418191,-31.738,-61.523,51.758,4.883
1790600226.421833,28.809,-42.480,1.953,38.086
1790600226.425475,100.586,-48.828,-13.184,74.707
1790600226.429117,47.363,-53.223,-3.906,34.668
1790600226.432759,-23.926,-40.039,1.953,-7.324
1790600226.436400,15.625,-42.969,-13.672,16.113
1790600226.440042,75.195,-54.199,-26.367,46.875
1790600226.443684,58.105,-57.617,37.598,27.344
1790600226.447325,-13.672,-56.152,50.293,-11.719
1790600226.454167,-30.273,-55.664,18.555,-15.137
1790600226.457818,45.410,-54.199,24.902,21.484
1790600226.461469,67.871,-36.621,41.504,32.715
1790600226.465121,-22.461,-40.039,50.781,6.348
1790600226.468772,-48.828,-35.645,30.762,-9.766
1790600226.472423,25.879,-34.180,36.621,12.695
1790600226.476074,64.453,-26.855,44.434,27.832
1790600226.479726,-9.277,-23.926,35.645,-1.953
1790600226.483377,-56.152,-28.809,27.832,-19.043
1790600226.487028,3.906,-42.480,47.363,-6.348
1790600226.490679,59.082,-40.039,59.082,19.531
1790600226.494331,15.137,-31.738,51.270,0.977
1790600226.500817,-34.668,-44.434,48.340,-18.066
1790600226.504476,0.000,-43.945,60.547,6.348
1790600226.508136,51.270,-39.551,53.223,11.719
1790600226.511795,29.297,-32.227,12.207,-23.438
1790600226.515454,-29.297,-15.625,8.789,-54.688
1790600226.519114,-41.016,3.906,21.973,-48.340
1790600226.522773,3.906,18.066,5.371,-20.020
1790600226.526433,38.574,0.977,-20.508,-11.230
1790600226.530092,-13.184,-24.902,-41.992,-36.133
1790600226.533751,-54.199,-18.555,-16.113,-73.242
1790600226.537411,2.930,-21.973,-39.062,-68.359
1790600226.541070,40.039,-17.578,-62.500,-45.410
1790600226.547394,-45.410,-8.789,-16.113,-63.965
1790600226.551061,-102.051,-9.766,-15.625,-73.242
1790600226.554728,-38.574,-23.438,-49.805,-33.691
1790600226.558395,27.344,-35.645,-66.895,3.906
1790600226.562061,-12.695,-24.902,-49.805,-18.555
1790600226.565728,-88.379,-15.137,-58.105,-41.504
1790600226.569395,-77.637,-20.996,-68.359,-24.414
1790600226.573062,1.953,-26.855,-64.941,10.254
1790600226.576729,0.000,-30.273,-32.715,15.625
1790600226.580395,-78.613,-46.387,-18.066,-32.715
1790600226.584062,-78.613,-37.109,-69.824,-36.621
1790600226.587729,-3.418,-17.090,-91.309,9.277
1790600226.593890,25.391,-33.691,-74.707,9.766
1790600226.597564,-33.691,-35.156,-60.547,-31.250
1790600226.601237,-70.801,-27.344,-75.195,-57.129
1790600226.604910,-18.555,-52.734,-40.039,-31.250
1790600226.608584,48.828,-41.016,8.789,3.906
1790600226.612257,-3.418,-20.996,10.254,-37.598
1790600226.615931,-65.918,-43.945,-17.578,-63.477
1790600226.619605,-19.531,-48.828,-5.859,-26.855
1790600226.623278,57.617,-29.785,89.355,0.000
1790600226.626951,26.855,-19.043,103.027,-27.832
1790600226.630625,-50.781,-28.320,66.406,-74.707
1790600226.634299,-40.527,-45.898,78.125,-62.012
1790600226.640355,26.855,-37.598,140.625,-20.508
1790600226.644035,22.949,-25.879,172.363,-36.133
1790600226.647715,-55.664,-44.434,185.059,-74.219
1790600226.651394,-68.359,-53.223,202.637,-65.430
1790600226.655074,7.812,-40.039,237.305,-28.320
1790600226.658754,43.945,-40.039,254.395,-12.695
1790600226.662434,-16.602,-39.551,243.652,-39.551
1790600226.666113,-55.176,-37.598,273.926,-54.688
1790600226.669793,1.953,-33.691,332.031,-45.898
1790600226.673473,66.406,-32.715,330.566,-15.137
1790600226.677152,15.625,-30.273,335.938,-30.273
1790600226.680832,-60.547,-43.457,343.262,-78.613
1790600226.686642,-34.668,-52.246,336.914,-74.707
1790600226.690327,40.039,-42.969,323.730,-16.113
1790600226.694012,29.297,-28.809,310.547,-20.508
1790600226.697697,-35.156,-22.461,353.027,-63.477
1790600226.701382,-45.410,-24.414,369.141,-60.547
1790600226.705067,23.438,-37.598,346.680,-9.277
1790600226.708753,37.109,-45.410,342.285,-0.977
1790600226.712438,-33.203,-39.062,344.238,-53.223
1790600226.716123,-34.668,-15.625,319.824,-47.363
1790600226.719808,28.320,-7.324,310.059,1.953
1790600226.723493,33.691,-15.625,342.773,15.137
1790600226.727178,-42.480,-36.621,347.168,-44.434
1790600226.733794,0.000,-42.480,285.156,-76.660
1790600226.737486,0.000,-30.273,253.906,-44.922
1790600226.741179,0.000,-28.320,297.363,1.465
1790600226.744871,0.000,-40.039,347.656,-20.996
1790600226.748563,0.000,-46.387,342.773,-58.594
1790600226.752255,0.000,-52.246,342.285,-27.344
1790600226.755948,0.000,-53.223,380.859,27.344
1790600226.759640,0.000,-24.902,426.758,-3.906
1790600226.763332,0.000,-24.414,455.078,-66.895
1790600226.767025,0.000,-43.457,445.312,-61.523
1790600226.770717,0.000,-43.457,479.980,-16.113
1790600226.774409,0.000,-24.414,498.047,-3.906
1790600226.780779,-46.387,-35.645,473.145,-60.547
1790600226.784478,-76.660,-59.082,464.355,-77.148
1790600226.788176,-10.742,-38.574,496.582,-38.574
1790600226.791875,31.250,-31.738,493.652,-12.207
1790600226.795574,-24.902,-36.621,447.754,-41.016
1790600226.799272,-61.035,-36.621,419.434,-64.941
1790600226.802971,-20.508,-37.109,470.215,-32.227
1790600226.806670,27.832,-37.598,526.855,10.742
1790600226.810368,-10.254,-37.109,488.770,-19.043
1790600226.814067,-75.684,-25.879,483.398,-63.477
1790600226.817765,-56.152,-11.230,554.199,-53.223
1790600226.821464,11.230,-14.160,548.340,-0.488
1790600226.828589,12.207,-6.348,539.062,0.488
1790600226.832295,-55.664,-7.812,575.195,-49.316
1790600226.836002,-59.570,-12.695,559.570,-40.527
1790600226.839709,5.859,-4.395,538.086,15.625
1790600226.843415,22.949,-17.090,545.898,20.020
1790600226.847122,-40.527,-31.738,562.988,-53.223
1790600226.850828,-78.125,-26.367,579.590,-67.383
1790600226.854535,-24.902,-13.184,613.770,-11.719
1790600226.858242,27.832,-18.066,622.070,13.672
1790600226.861948,-16.602,-18.555,637.695,-40.527
1790600226.865655,-76.660,-12.207,658.691,-80.566
1790600226.869361,-52.734,-17.090,653.320,-43.457
1790600226.875343,15.137,-25.879,692.871,-8.789
1790600226.879055,5.859,-31.250,738.770,-40.039
1790600226.882766,-52.246,-36.621,750.488,-83.496
1790600226.886478,-46.875,-20.020,757.324,-67.871
1790600226.890190,-7.324,-6.348,775.879,-5.859
1790600226.893901,5.859,-15.137,819.336,-3.418
1790600226.897613,-20.996,-6.836,837.891,-65.918
1790600226.901325,-14.648,-25.391,821.777,-61.523
1790600226.905036,30.273,-40.039,831.543,-0.488
1790600226.908748,4.883,-8.789,831.543,-17.578
1790600226.912460,-73.730,3.418,776.855,-64.453
1790600226.916172,-102.051,-9.766,708.984,-72.754
1790600226.922012,-56.152,-6.348,707.031,-44.434
1790600226.925728,-22.949,-4.395,759.766,8.789
1790600226.929444,-55.664,-3.418,738.770,-34.668
1790600226.933161,-94.727,1.465,718.262,-83.008
1790600226.936877,-82.520,-6.836,716.309,-62.500
1790600226.940593,-14.648,-31.738,716.797,-10.254
1790600226.944310,-15.625,-22.949,763.672,-22.949
1790600226.948026,-85.449,-3.906,842.773,-84.473
1790600226.951743,-83.496,-1.465,891.602,-76.172
1790600226.955459,-11.230,8.301,905.273,-19.043
1790600226.959175,0.488,-4.883,901.855,-11.719
1790600226.962892,-60.059,-12.207,907.227,-73.242
1790600226.968595,-73.730,6.836,0.000,-96.191
1790600226.972315,-30.762,3.418,0.000,-35.645
1790600226.976036,7.812,-5.371,0.000,4.395
1790600226.979756,-46.387,0.000,0.000,-63.477
1790600226.983477,-87.891,4.883,0.000,-93.750
1790600226.987198,-44.922,-5.859,0.000,-38.574
1790600226.990918,6.348,-7.324,0.000,8.789
1790600226.994639,-18.066,-15.625,0.000,-43.945
1790600226.998359,-93.750,-30.762,0.000,-112.793
1790600227.002080,-86.426,-20.020,0.000,-69.336
1790600227.005801,-8.301,-4.883,0.000,-0.977
1790600227.009521,-23.438,-4.395,0.000,-26.855
1790600227.015234,-86.914,2.930,909.180,-77.637
1790600227.018959,-76.172,1.953,902.832,-76.660
1790600227.022684,-20.996,-7.812,910.156,-31.250
1790600227.026409,-1.953,-11.719,906.738,-17.578
1790600227.030133,-60.059,-11.230,895.020,-77.148
1790600227.033858,-97.168,3.906,890.625,-97.656
1790600227.037583,-39.062,4.395,890.137,-40.527
1790600227.041308,0.977,-11.230,899.902,-5.371
1790600227.045033,-58.594,-14.648,911.621,-67.383
1790600227.048757,-94.238,-19.531,905.762,-97.168
1790600227.052482,-58.594,-20.020,902.832,-62.012
1790600227.056207,-2.930,-6.836,906.738,-9.277
1790600227.061779,-20.020,-2.930,904.785,-28.320
1790600227.065507,-72.754,-17.578,895.996,-87.402
1790600227.069236,-65.918,-29.785,889.648,-84.961
1790600227.072964,-10.254,-23.926,888.672,-27.832
1790600227.076693,-5.859,-14.648,886.719,-16.113
1790600227.080421,-83.984,-29.785,856.445,-79.590
1790600227.084150,-99.121,-28.809,841.309,-99.121
1790600227.087878,-32.715,-13.184,862.305,-33.691
1790600227.091607,-7.324,-16.602,818.359,-3.418
1790600227.095335,-63.965,-32.227,730.957,-61.523
1790600227.099064,-87.891,-29.297,706.055,-87.891
1790600227.102793,-27.832,-19.043,741.699,-46.875
1790600227.109060,27.832,-23.926,724.121,6.348
1790600227.112794,-20.020,-28.809,659.180,-45.410
1790600227.116528,-85.938,-23.438,637.695,-100.098
1790600227.120261,-65.430,-22.949,626.953,-62.012
1790600227.123995,-6.348,-36.133,583.496,-6.836
1790600227.127728,-28.809,-23.926,529.297,-26.855
1790600227.131462,-92.773,-17.090,497.559,-96.191
1790600227.135195,-97.168,-21.484,501.465,-100.098
1790600227.138929,-36.621,-21.973,509.277,-42.480
1790600227.142662,-20.020,-18.555,480.469,-37.109
1790600227.146396,-92.285,-20.020,446.289,-105.469
1790600227.150130,-108.398,-18.066,407.715,-138.184
1790600227.156189,-35.645,-25.391,372.559,-61.035
1790600227.159927,0.000,-36.621,352.051,0.000
1790600227.163666,-65.430,-26.855,347.168,-69.824
1790600227.167404,-107.422,-35.645,325.684,-109.375
1790600227.171142,-56.152,-28.320,313.965,-67.383
1790600227.174880,16.602,-2.930,313.477,-8.301
1790600227.178618,-30.273,-9.766,317.383,-42.969
1790600227.182356,-103.516,-32.715,306.641,-97.168
1790600227.186094,-75.195,-34.668,266.113,-59.570
1790600227.189832,-10.254,-17.090,274.902,4.395
1790600227.193570,-20.508,-18.066,293.457,-20.508
1790600227.197308,-89.355,-33.203,269.531,-91.797
1790600227.203500,-90.820,-34.180,277.344,-82.031
1790600227.207243,-16.113,-33.691,307.617,-31.250
1790600227.210986,9.277,-25.879,325.684,-25.391
1790600227.214728,-74.219,-22.461,319.336,-62.012
1790600227.218471,-102.051,-25.879,286.133,-77.148
1790600227.222214,-26.367,-22.949,256.836,-21.484
1790600227.225956,26.367,-25.879,241.211,22.461
1790600227.229699,-39.551,-27.832,219.238,-32.227
1790600227.233442,-92.285,-28.809,206.055,-66.406
1790600227.237185,-40.039,-32.227,203.613,-30.762
1790600227.240927,36.621,-7.812,164.062,22.461
1790600227.244670,6.348,-4.395,104.004,-0.488
1790600227.250342,-81.055,-21.973,62.012,-59.082
1790600227.254088,-77.148,-15.625,61.035,-53.223
1790600227.257835,18.555,-8.301,57.617,6.348
1790600227.261581,14.160,-8.301,-0.488,5.859
1790600227.265327,-71.777,-23.926,-50.781,-54.199
1790600227.269073,-78.125,-30.273,-70.801,-61.035
1790600227.272820,6.348,-17.090,-104.492,-8.301
1790600227.276566,53.711,-9.277,-150.879,23.438
1790600227.280313,-28.320,-14.160,-180.176,-20.020
1790600227.284059,-76.172,-29.785,-172.852,-62.012
1790600227.287805,-20.996,-29.785,-175.781,-24.902
1790600227.291551,33.203,-34.668,-226.074,21.973
1790600227.297094,-26.855,-29.297,-288.574,-13.672
1790600227.300844,-93.750,-26.855,-333.984,-53.711
1790600227.304593,-46.387,-37.598,-374.512,-21.973
1790600227.308343,28.809,-23.438,-401.367,33.691
1790600227.312092,-13.184,-13.184,-401.367,-4.395
1790600227.315842,-89.844,-24.414,-405.273,-55.664
1790600227.319591,-74.707,-38.086,-432.129,-46.875
1790600227.323341,10.742,-31.250,-444.336,0.488
1790600227.327091,15.625,-21.484,-467.773,2.930
1790600227.330840,-73.730,-26.367,-487.793,-49.316
1790600227.334589,-81.055,-54.688,-486.816,-49.316
1790600227.338339,-8.301,-46.875,-497.559,-5.859
1790600227.343886,25.391,-20.020,-489.258,12.207
1790600227.347639,-49.316,-28.809,-481.445,-37.598
1790600227.351392,-92.773,-24.902,-500.488,-66.895
1790600227.355145,-21.973,-14.160,-483.887,-28.320
1790600227.358897,40.527,-16.113,-451.172,17.090
1790600227.362650,-22.461,-25.879,-446.777,-16.602
1790600227.366403,-79.102,-27.344,-487.793,-41.016
1790600227.370155,-46.387,-24.414,-498.047,-13.672
1790600227.373908,22.461,-24.902,-436.523,7.812
1790600227.377661,14.648,-23.926,-446.777,-10.742
1790600227.381413,-68.848,-27.344,-488.770,-52.246
1790600227.385166,-76.660,-29.785,-494.141,-48.828
1790600227.390583,7.324,-41.016,-489.258,6.348
1790600227.394339,25.879,-47.363,-485.840,24.902
1790600227.398095,-65.430,-43.945,-490.234,-29.785
1790600227.401850,-93.750,-36.621,-482.910,-50.293
1790600227.405606,-13.672,-31.738,-466.309,-2.930
1790600227.409361,37.598,-40.039,-463.379,21.484
1790600227.413117,-48.340,-45.898,-470.703,-15.625
1790600227.416873,-123.535,-43.945,-444.824,-43.945
1790600227.420628,-56.641,-32.227,-376.465,-23.926
1790600227.424384,34.180,-37.109,-391.113,21.484
1790600227.428139,-20.020,-36.133,-414.062,-14.160
1790600227.431895,-96.680,-33.203,-395.020,-51.270
1790600227.437155,-48.828,-38.574,-371.094,-9.277
1790600227.440913,46.875,-24.902,-362.305,29.785
1790600227.444671,13.184,-22.949,-364.746,2.930
1790600227.448429,-99.609,-15.137,-363.770,-61.035
1790600227.452188,-100.098,-10.254,-395.020,-72.266
1790600227.455946,-2.930,-22.949,-417.969,-18.555
1790600227.459704,20.996,-28.809,-428.223,-11.230
1790600227.463462,-73.242,-35.156,-435.547,-78.613
1790600227.467220,-107.422,-33.203,-457.520,-92.285
1790600227.470978,-40.527,-35.645,-479.492,-37.109
1790600227.474737,3.418,-46.387,-494.629,-15.137
1790600227.478495,-62.012,-46.875,-522.461,-49.805
1790600227.484980,-101.074,-43.457,-601.074,-77.637
1790600227.488743,-33.203,-39.062,-687.988,-47.852
1790600227.492506,48.828,-29.297,-696.289,2.441
1790600227.496268,-3.418,-58.594,-686.035,-30.762
1790600227.500031,-91.797,-56.641,-713.867,-74.707
1790600227.503794,-56.152,-28.320,-713.867,-45.410
1790600227.507556,23.438,-45.410,-696.777,10.254
1790600227.511319,15.625,-35.156,-685.059,19.043
1790600227.515082,-64.941,-11.719,-667.480,-25.391
1790600227.518845,-80.078,-19.531,-673.828,-33.691
1790600227.522607,1.953,-31.250,-638.184,3.418
1790600227.526370,37.109,-27.344,-601.074,11.230
1790600227.531991,-41.992,-26.367,-604.492,-32.227
1790600227.535757,-83.984,-36.621,-598.633,-36.621
1790600227.539522,-16.113,-38.574,-544.434,3.418
1790600227.543288,54.688,-32.227,-509.277,32.227
1790600227.547054,-11.719,-40.039,-523.926,-1.465
1790600227.550820,-71.777,-45.898,-538.574,-22.949
1790600227.554585,-5.859,-39.551,-530.762,20.996
1790600227.558351,61.523,-33.691,-521.973,44.922
1790600227.562117,-0.488,-31.738,-569.336,-9.766
1790600227.565883,-84.473,-21.973,-587.402,-54.199
1790600227.569649,-54.688,-16.602,-586.426,-31.738
1790600227.573414,19.043,-16.113,-595.703,2.441
1790600227.578976,19.043,-24.902,-657.715,-2.441
1790600227.582745,-74.219,-31.738,-724.121,-61.523
1790600227.586513,-101.562,-24.902,-721.680,-82.520
1790600227.590282,-16.113,-27.832,-818.359,-35.645
1790600227.594050,29.785,-36.621,-903.320,-3.906
1790600227.597819,-40.039,-35.645,-909.180,-39.062
1790600227.601588,-92.773,-43.457,-910.156,-61.035
1790600227.605356,-32.715,-45.410,-906.250,-14.160
1790600227.609125,39.551,-31.738,-898.438,20.508
1790600227.612894,-21.484,-35.156,-900.879,-24.414
1790600227.616662,-93.262,-30.273,-925.781,-54.199
1790600227.620431,-49.805,-22.949,-934.082,-29.785
1790600227.625905,43.457,-24.414,-925.781,18.066
1790600227.629676,24.414,-20.020,-933.105,5.371
1790600227.633447,-61.523,-27.344,-927.246,-42.969
1790600227.637219,-54.688,-57.617,-932.617,-33.203
1790600227.640990,19.531,-50.293,-949.219,5.859
1790600227.644762,26.855,-28.320,-949.707,12.695
1790600227.648533,-53.711,-36.133,-951.172,-30.273
1790600227.652304,-78.613,-41.504,-971.680,-42.969
1790600227.656075,-4.395,-49.316,-965.332,-3.906
1790600227.659847,47.852,-43.945,-947.266,17.578
1790600227.663618,-18.555,-45.410,-972.168,-16.602
1790600227.667389,-56.152,-51.758,-986.328,-22.461
1790600227.672705,-2.930,-33.203,-986.816,9.277
1790600227.676479,64.941,-29.785,-988.770,36.621
1790600227.680253,29.297,-42.480,-992.676,13.672
1790600227.684026,-44.922,-45.410,-998.047,-11.719
1790600227.687800,-27.832,-46.387,-997.559,-3.418
1790600227.691574,58.594,-53.223,-998.047,29.297
1790600227.695348,47.852,-62.012,-1000.000,24.414
1790600227.699121,-54.199,-53.711,-999.512,-14.160
1790600227.702895,-61.523,-45.410,-992.676,-0.977
1790600227.706669,36.621,-51.758,-987.793,36.133
1790600227.710443,65.918,-60.547,-993.652,40.039
1790600227.714216,-26.367,-53.711,-988.770,7.324
1790600227.719563,0.000,-44.922,-982.422,-3.906
1790600227.723339,0.000,-51.758,-984.863,22.949
1790600227.727115,0.000,-46.387,-986.816,55.664
1790600227.730891,0.000,-54.199,-980.957,23.926
1790600227.734667,0.000,-52.246,-974.121,-27.344
1790600227.738443,0.000,-39.551,-973.633,-12.695
1790600227.742219,0.000,-34.668,-981.445,40.527
1790600227.745995,0.000,-48.828,-972.168,31.738
1790600227.749771,0.000,-53.223,-944.824,-14.160
1790600227.753547,0.000,-25.391,-941.895,3.906
1790600227.757324,0.000,-18.066,-928.223,47.363
1790600227.761100,0.000,-23.926,-908.691,40.527
1790600227.766276,-17.578,-29.785,-894.531,-3.418
1790600227.770054,-46.875,-28.809,-886.230,-8.789
1790600227.773833,41.016,-30.273,-864.258,24.414
1790600227.777611,80.566,-40.527,-845.215,35.156
1790600227.781389,-12.207,-36.621,-842.285,-2.930
1790600227.785167,-52.734,-29.297,-833.008,-14.648
1790600227.788945,24.902,-30.273,-829.102,20.508
1790600227.792723,70.312,-41.992,-776.367,29.297
1790600227.796502,-1.953,-39.062,-689.453,1.465
1790600227.800280,-58.594,-40.527,-693.848,-21.973
1790600227.804058,-18.555,-41.504,-667.480,-24.414
1790600227.807836,58.594,-33.691,-599.121,-4.395
1790600227.812885,20.508,-33.203,-568.359,-22.949
1790600227.816665,-74.219,-29.785,-566.406,-64.453
1790600227.820445,-62.012,-28.320,-544.434,-54.199
1790600227.824225,43.457,-27.832,-488.770,-14.648
1790600227.828005,60.547,-25.391,-473.145,-8.789
1790600227.831785,-51.270,-35.156,-481.445,-49.805
1790600227.835565,-71.777,-40.527,-456.543,-55.664
1790600227.839345,13.672,-30.273,-398.926,-4.395
1790600227.843125,58.105,-34.668,-398.926,8.301
1790600227.846905,-33.203,-36.133,-426.270,-38.086
1790600227.850686,-93.262,-21.484,-408.691,-53.711
1790600227.854465,-24.414,-10.742,-358.398,-20.508
1790600227.860038,0.000,-20.020,-373.535,-8.301
1790600227.863821,0.000,-27.832,-390.137,-27.832
1790600227.867603,0.000,-14.160,-355.469,-42.969
1790600227.871386,0.000,-13.184,-319.336,-31.738
1790600227.875169,0.000,-19.043,-313.477,6.836
1790600227.878951,0.000,-12.207,-326.172,-2.930
1790600227.882734,0.000,-13.672,-338.379,-28.320
1790600227.886516,0.000,-26.855,-320.801,-36.133
1790600227.890299,0.000,-24.414,-296.875,-20.508
1790600227.894082,0.000,-24.414,-322.754,2.441
1790600227.897864,0.000,-33.691,-306.152,-35.156
1790600227.901647,0.000,-13.184,-298.340,-55.664
1790600227.907055,-6.836,2.930,-297.363,-10.742
1790600227.910840,39.551,-13.672,-295.410,0.977
1790600227.914625,-26.855,-18.066,-304.688,-38.574
1790600227.918410,-81.543,-0.977,-310.059,-55.664
1790600227.922195,-20.996,-12.207,-310.547,-25.391
1790600227.925980,67.383,-26.367,-333.008,16.602
1790600227.929765,4.395,-12.695,-320.801,-6.348
1790600227.933549,-90.820,-3.906,-303.223,-45.898
1790600227.937334,-50.781,-17.090,-354.980,-29.785
1790600227.941119,43.457,-23.438,-394.043,19.043
1790600227.944904,39.551,-15.137,-361.328,20.508
1790600227.948689,-52.246,-12.695,-359.375,-24.902
1790600227.954030,-68.359,-3.906,-390.625,-34.180
1790600227.957817,20.508,-2.441,-367.676,-2.441
1790600227.961604,49.316,0.977,-347.656,-2.441
1790600227.965391,-47.363,-2.930,-336.914,-29.297
1790600227.969178,-87.891,-17.090,-336.426,-36.621
1790600227.972965,-16.602,-9.766,-329.102,-15.137
1790600227.976752,49.805,-17.090,-298.828,10.254
1790600227.980539,-18.066,-33.691,-282.715,-18.066
1790600227.984326,-84.473,-28.320,-270.020,-30.273
1790600227.988113,-26.367,-18.555,-250.488,-6.836
1790600227.991900,59.082,-12.207,-247.070,11.230
1790600227.995687,20.996,-5.859,-258.301,-7.812
1790600228.000976,-67.871,0.977,-263.184,-41.016
1790600228.004765,-55.176,-5.371,-233.398,-29.297
1790600228.008554,33.691,-25.879,-209.961,4.395
1790600228.012343,27.832,-37.109,-244.141,4.395
1790600228.016133,-68.848,-30.273,-253.906,-31.738
1790600228.019922,-67.871,-20.020,-235.352,-40.039
1790600228.023711,14.160,-29.297,-229.492,-6.348
1790600228.027500,58.594,-36.133,-259.766,12.695
1790600228.031289,-27.344,-19.531,-260.254,-17.578
1790600228.035078,-86.914,-8.789,-219.727,-43.945
1790600228.038867,-14.648,-9.766,-223.145,-18.066
1790600228.042656,54.199,-17.578,-237.305,16.113
1790600228.047853,0.000,-16.113,-223.145,-19.531
1790600228.051645,0.000,-5.371,-204.590,-52.246
1790600228.055436,0.000,-12.207,-203.125,-24.414
1790600228.059227,0.000,-25.391,-200.195,8.301
1790600228.063018,0.000,-38.574,-190.430,-17.090
1790600228.066809,0.000,-34.180,-175.781,-52.734
1790600228.070600,0.000,-15.625,-173.828,-34.180
1790600228.074391,0.000,-6.348,-163.574,-3.906
1790600228.078182,0.000,-20.508,-128.418,-6.836
1790600228.081973,0.000,-43.945,-100.098,-40.039
1790600228.085764,0.000,-20.996,-120.605,-51.270
1790600228.089555,0.000,-2.441,-115.723,-21.484
1790600228.094613,33.691,-5.859,-78.125,-5.859
1790600228.098406,-39.551,-8.789,-55.176,-40.527
1790600228.102198,-74.707,-20.020,-81.543,-49.805
1790600228.105991,-16.113,-12.695,-83.008,-17.090
1790600228.109784,42.969,-10.742,-39.551,-2.930
1790600228.113576,0.977,-24.414,-53.223,-22.461
1790600228.117369,-67.383,-25.879,-80.078,-44.922
1790600228.121162,-43.945,-21.484,-71.777,-35.156
1790600228.124954,40.039,-17.578,-20.508,-2.441
1790600228.128747,28.809,-26.367,-21.484,-6.348
1790600228.132540,-70.312,-21.973,-52.734,-61.035
1790600228.136333,-79.590,-9.277,-49.805,-55.664
1790600228.141371,5.371,-16.113,-25.879,-5.371
1790600228.145165,33.691,-32.227,-56.152,-3.906
1790600228.148960,-61.035,-24.902,-80.566,-45.898
1790600228.152754,-103.516,-22.949,-64.941,-63.477
1790600228.156549,-24.414,-24.414,-69.336,-34.180
1790600228.160343,44.922,-19.043,-94.727,-20.508
1790600228.164137,-17.090,-22.461,-128.418,-48.340
1790600228.167931,-98.633,-25.879,-107.910,-72.266
1790600228.171726,-58.105,-32.227,-62.012,-60.547
1790600228.175520,36.133,-45.898,-98.633,-17.090
1790600228.179314,-5.371,-42.969,-121.582,-20.996
1790600228.183109,-92.285,-12.207,-113.770,-62.012
1790600228.188008,-64.941,-9.766,-122.559,-52.246
1790600228.191803,20.020,-22.461,-143.066,-20.996
1790600228.195599,1.465,-20.996,-145.508,-37.598
1790600228.199395,-118.652,-13.672,-142.578,-76.172
1790600228.203191,-128.906,-15.625,-175.781,-74.707
1790600228.206986,-29.785,-20.508,-191.406,-38.086
1790600228.210782,-5.859,-22.461,-180.176,-33.691
1790600228.214578,-102.051,-14.648,-150.879,-77.637
1790600228.218374,-152.344,-6.836,-177.246,-113.281
1790600228.222169,-88.379,1.465,-208.008,-86.914
1790600228.225965,-20.996,9.766,-238.770,-59.082
1790600228.229761,-96.191,20.020,-288.086,-109.863
1790600228.235165,-186.035,31.738,-324.707,-154.297
1790600228.238963,-159.180,29.297,-395.996,-146.484
1790600228.242761,-96.191,42.480,-483.887,-132.324
1790600228.246558,-142.090,44.922,-506.836,-184.082
1790600228.250356,-263.184,48.340,-520.020,-251.953
1790600228.254154,-277.344,53.223,-628.418,-261.230
1790600228.257952,-183.594,33.691,-694.824,-242.676
1790600228.261749,-186.523,41.992,-683.105,-255.859
1790600228.265547,-322.266,49.316,-714.844,-310.059
1790600228.269345,-372.070,36.621,-712.402,-315.430
1790600228.273143,-276.367,29.785,-660.645,-276.855
1790600228.276940,-246.582,48.828,-779.297,-271.484
1790600228.282292,-345.703,51.270,-893.066,-307.617
1790600228.286092,-383.789,31.738,-868.164,-325.684
1790600228.289891,-298.340,45.898,-842.285,-279.297
1790600228.293691,-200.195,53.711,-851.074,-241.699
1790600228.297491,-237.793,16.113,-879.395,-248.047
1790600228.301290,-309.082,13.672,-856.445,-238.281
1790600228.305090,-257.812,16.602,-795.898,-205.078
1790600228.308890,-131.348,12.695,-758.789,-159.180
1790600228.312689,-118.652,18.555,-793.457,-147.949
1790600228.316489,-209.473,14.160,-815.918,-176.758
1790600228.320289,-187.012,19.043,-728.027,-167.969
1790600228.324088,-63.477,7.812,-661.133,-97.656
1790600228.329313,-23.438,-7.324,-680.176,-58.105
1790600228.333114,-107.910,-21.973,-693.848,-86.914
1790600228.336916,-129.883,-31.738,-678.711,-91.309
1790600228.340717,-37.598,-24.902,-624.023,-45.410
1790600228.344519,22.949,-41.504,-597.656,-13.672
1790600228.348320,-39.062,-40.527,-606.934,-33.203
1790600228.352122,-81.055,-38.086,-607.910,-41.992
1790600228.355923,4.395,-41.504,-597.168,2.930
1790600228.359725,98.633,-50.293,-574.219,50.293
1790600228.363526,58.594,-37.109,-535.645,41.992
1790600228.367327,-23.438,-38.086,-514.648,19.531
1790600228.371129,4.883,-59.570,-528.320,42.480
1790600228.376277,107.910,-64.453,-536.133,84.961
1790600228.380080,119.629,-70.801,-464.844,89.844
1790600228.383883,22.949,-76.172,-421.875,51.758
1790600228.387686,14.648,-70.312,-423.828,48.828
1790600228.391489,116.699,-68.359,-386.230,98.633
1790600228.395292,148.926,-66.895,-349.121,110.352
1790600228.399095,40.039,-62.012,-343.262,63.965
1790600228.402898,1.953,-69.336,-379.883,49.316
1790600228.406701,102.539,-65.430,-345.215,84.961
1790600228.410504,154.297,-51.270,-241.699,99.609
1790600228.414307,67.383,-58.105,-194.336,63.965
1790600228.418110,-2.930,-80.566,-203.125,44.922
1790600228.423184,0.000,-78.125,-179.199,63.965
1790600228.426989,0.000,-61.523,-124.023,91.797
1790600228.430793,0.000,-67.871,-136.230,86.914
1790600228.434598,0.000,-63.965,-177.734,48.828
1790600228.438402,0.000,-66.406,-175.781,55.664
1790600228.442207,0.000,-77.637,-230.469,93.262
1790600228.446012,0.000,-62.988,-352.539,87.402
1790600228.449816,0.000,-57.129,-377.930,43.945
1790600228.453621,0.000,-67.383,-379.395,34.668
1790600228.457425,0.000,-61.523,-457.031,71.777
1790600228.461230,0.000,-59.082,-590.820,75.195
1790600228.465034,0.000,-72.266,-606.445,23.926
1790600228.469968,-34.180,-71.777,-481.445,6.836
1790600228.473774,33.203,-77.637,-384.766,32.715
1790600228.477580,110.352,-82.520,-360.840,68.848
1790600228.481386,46.875,-65.918,-348.145,48.828
1790600228.485192,-39.062,-63.965,-354.492,15.137
1790600228.488998,-7.812,-57.129,-371.582,27.832
1790600228.492804,96.680,-58.105,-385.742,82.520
1790600228.496609,92.285,-68.359,-385.254,83.008
1790600228.500415,-30.273,-58.594,-309.570,0.488
1790600228.504221,-54.688,-44.922,-304.199,-3.906
1790600228.508027,39.062,-39.062,-342.285,34.180
1790600228.511833,61.035,-35.645,-344.727,23.926
1790600228.516716,0.000,-38.086,-337.891,-13.184
1790600228.520523,0.000,-45.898,-362.793,-31.250
1790600228.524330,0.000,-49.316,-354.492,-7.324
1790600228.528137,0.000,-45.898,-323.730,10.254
1790600228.531945,0.000,-43.457,-321.777,-26.367
1790600228.535752,0.000,-48.828,-342.773,-46.387
1790600228.539559,0.000,-58.594,-352.539,-0.977
1790600228.543366,0.000,-49.805,-313.965,34.180
1790600228.547173,0.000,-31.738,-249.023,5.859
1790600228.550980,0.000,-44.434,-234.375,-28.320
1790600228.554787,0.000,-50.781,-212.891,-13.672
1790600228.558594,0.000,-47.363,-192.871,30.273
1790600228.563374,33.203,-41.504,-207.031,22.949
1790600228.567183,-64.453,-40.527,-217.773,-17.578
1790600228.570991,-73.242,-48.828,-218.262,-20.508
1790600228.574799,12.207,-47.852,-179.688,15.137
1790600228.578607,42.969,-65.430,-169.922,30.273
1790600228.582416,-41.992,-64.453,-208.496,-11.230
1790600228.586224,-84.473,-39.062,-227.539,-31.738
1790600228.590032,-10.742,-34.668,-175.293,-1.465
1790600228.593840,56.641,-34.180,-156.250,13.672
1790600228.597649,-22.461,-44.434,-192.383,-19.043
1790600228.601457,-97.656,-46.875,-197.754,-41.016
1790600228.605265,-42.480,-39.551,-162.598,-26.367
1790600228.610004,47.363,-41.016,-139.648,-0.977
1790600228.613814,12.207,-34.668,-182.129,-15.137
1790600228.617623,-76.172,-33.691,-201.172,-41.504
1790600228.621432,-57.617,-38.574,-157.227,-34.180
1790600228.625242,30.273,-41.504,-163.086,-12.207
1790600228.629051,20.996,-47.363,-173.828,-15.137
1790600228.632860,-78.125,-34.668,-158.203,-46.875
1790600228.636670,-81.543,-33.203,-142.578,-51.758
1790600228.640479,15.625,-43.945,-112.793,-14.648
1790600228.644288,43.945,-41.504,-135.742,6.348
1790600228.648098,-60.547,-43.457,-121.582,-21.484
1790600228.651907,-97.656,-46.387,-96.680,-32.227
1790600228.657147,-10.742,-54.688,-119.629,-21.484
1790600228.660958,36.133,-52.246,-155.273,-10.254
1790600228.664769,-39.062,-41.992,-129.883,-30.762
1790600228.668580,-93.750,-43.945,-103.516,-64.453
1790600228.672390,-46.387,-45.410,-133.789,-52.246
1790600228.676201,46.387,-38.574,-142.090,8.301
1790600228.680012,21.484,-31.738,-104.004,2.441
1790600228.683823,-86.426,-26.367,-81.543,-74.219
1790600228.687634,-83.008,-23.926,-130.371,-71.289
1790600228.691445,25.391,-20.508,-123.047,-21.973
1790600228.695256,36.621,-18.555,-48.340,-32.227
1790600228.699067,-54.688,-24.902,-42.969,-55.664
1790600228.704150,-78.613,-22.461,-76.660,-47.852
1790600228.707963,2.441,-21.973,-68.359,-7.812
1790600228.711775,55.664,-23.926,-64.453,11.230
1790600228.715587,-31.738,-27.344,-79.590,-26.367
1790600228.719399,-94.238,-39.062,-93.750,-46.875
1790600228.723212,-25.391,-53.223,-78.613,-27.832
1790600228.727024,44.922,-47.363,-66.406,-2.441
1790600228.730836,-19.043,-30.273,-59.570,-39.551
1790600228.734648,-97.168,-31.250,-45.898,-66.406
1790600228.738461,-62.988,-38.574,-25.879,-44.922
1790600228.742273,23.438,-33.691,-12.695,-17.090
1790600228.746085,1.953,-48.340,9.766,-26.855
1790600228.751048,-89.355,-52.734,59.082,-57.617
1790600228.754862,-78.125,-43.457,88.379,-43.457
1790600228.758675,11.719,-29.785,98.633,-6.348
1790600228.762489,31.250,-21.484,71.777,6.836
1790600228.766302,-60.059,-24.902,54.688,-31.250
1790600228.770116,-97.168,-30.762,59.082,-55.664
1790600228.773929,-8.301,-21.484,77.637,-22.949
1790600228.777743,58.105,-27.344,56.152,7.812
1790600228.781556,-4.395,-36.621,45.410,-2.930
1790600228.785370,-64.941,-13.672,87.891,-44.922
1790600228.789183,-29.785,-15.137,88.867,-44.922
1790600228.792997,23.438,-10.254,70.312,-14.648
1790600228.797907,-17.578,-7.812,90.332,-34.668
1790600228.801722,-88.867,-16.602,119.141,-63.965
1790600228.805537,-69.336,-20.020,99.609,-43.457
1790600228.809351,30.273,-21.973,78.125,-13.184
1790600228.813166,26.855,-21.484,77.637,-18.066
1790600228.816981,-76.172,-27.832,61.523,-44.922
1790600228.820796,-71.289,-31.738,26.855,-57.617
1790600228.824610,30.273,-16.602,39.062,-31.250
1790600228.828425,49.316,-5.859,58.594,-14.648
1790600228.832240,-51.270,-11.230,48.340,-38.574
1790600228.836054,-85.938,-16.113,30.273,-44.434
1790600228.839869,-1.953,-25.391,32.715,-16.602
1790600228.844662,57.617,-33.691,51.758,-6.348
1790600228.848477,-22.461,-22.461,61.035,-38.086
1790600228.852293,-84.961,-13.672,26.367,-59.082
1790600228.856109,-33.691,-18.555,25.879,-37.109
1790600228.859925,47.363,-18.066,41.504,0.977
1790600228.863740,11.230,-20.508,37.598,-21.973
1790600228.867556,-85.449,-27.832,13.672,-56.641
1790600228.871372,-78.613,-49.316,-6.348,-45.410
1790600228.875188,15.625,-46.387,49.805,-20.508
1790600228.879003,31.738,-16.113,51.270,-13.672
1790600228.882819,-60.547,-14.160,25.391,-29.785
1790600228.886635,-82.520,-26.367,17.578,-42.480
1790600228.891417,15.625,-29.785,24.902,-6.836
1790600228.895234,53.711,-30.762,12.207,12.207
1790600228.899051,-52.246,-24.902,13.672,-37.109
1790600228.902867,-104.004,-15.625,20.020,-58.105
1790600228.906684,-25.879,-15.137,17.090,-26.367
1790600228.910501,47.363,-17.578,-4.883,11.230
1790600228.914318,-16.113,-25.879,-33.691,2.441
1790600228.918134,-84.473,-26.855,-19.531,-25.391
1790600228.921951,-41.504,-27.344,33.203,-22.949
1790600228.925768,42.969,-32.715,15.137,4.395
1790600228.929585,19.531,-37.598,-5.859,-12.207
1790600228.933401,-78.613,-42.480,-7.812,-61.035
1790600228.938600,-77.148,-31.738,-18.066,-61.523
1790600228.942418,24.902,-26.367,-13.672,-31.250
1790600228.946236,38.574,-36.621,-16.113,-21.484
1790600228.950054,-59.570,-38.574,-5.371,-50.781
1790600228.953872,-79.102,-24.902,-15.625,-66.895
1790600228.957690,9.766,-26.855,-22.949,-30.762
1790600228.961509,62.500,-23.438,-5.371,-7.324
1790600228.965327,-12.207,-15.137,37.598,-37.598
1790600228.969145,-64.453,-19.531,48.828,-46.387
1790600228.972963,-32.715,-29.297,26.855,-27.832
1790600228.976781,29.785,-34.668,32.227,-1.465
1790600228.980600,-15.625,-31.250,66.406,-23.438
1790600228.985697,-107.422,-32.227,52.734,-62.988
1790600228.989517,-65.918,-37.109,19.043,-41.016
1790600228.993336,31.738,-27.832,48.340,-10.254
1790600228.997156,4.883,-18.066,97.168,-25.879
1790600229.000975,-93.750,-34.668,62.988,-60.059
1790600229.004795,-99.609,-28.809,31.738,-56.641
1790600229.008614,-11.230,-26.855,53.711,-15.625
1790600229.012434,39.062,-33.691,59.570,17.090
1790600229.016253,-49.316,-37.598,70.312,-17.090
1790600229.020072,-122.070,-51.758,41.504,-53.223
1790600229.023892,-53.711,-47.852,61.035,-34.180
1790600229.027711,10.254,-37.109,81.543,-19.043
1790600229.032691,-68.359,-32.227,35.156,-39.062
1790600229.036511,-128.418,-37.598,23.438,-64.453
1790600229.040332,-58.594,-52.734,73.730,-51.758
1790600229.044153,26.367,-62.012,94.727,-20.508
1790600229.047973,-35.645,-50.293,63.965,-55.664
1790600229.051794,-137.695,-37.109,52.246,-93.750
1790600229.055615,-113.770,-32.227,85.938,-75.684
1790600229.059435,-11.230,-39.551,111.328,-49.316
1790600229.063256,-7.812,-49.316,62.500,-40.039
1790600229.067076,-103.516,-45.898,37.109,-63.477
1790600229.070897,-122.559,-47.363,78.125,-64.453
1790600229.074718,-22.949,-45.898,95.703,-9.766
1790600229.079641,24.902,-37.109,82.031,10.742
1790600229.083463,-69.824,-41.504,78.125,-28.809
1790600229.087285,-115.723,-41.016,75.195,-37.598
1790600229.091107,-29.785,-41.504,65.430,-10.254
1790600229.094928,45.410,-41.992,26.855,0.488
1790600229.098750,-32.715,-48.340,19.531,-29.785
1790600229.102572,-113.770,-54.688,33.203,-52.246
1790600229.106394,-55.176,-35.645,27.832,-35.645
1790600229.110215,37.598,-42.480,31.738,-4.395
1790600229.114037,-8.301,-44.434,55.664,-14.648
1790600229.117859,-112.305,-36.621,61.035,-59.082
1790600229.121680,-82.520,-41.504,25.879,-38.574
1790600229.126549,43.945,-42.969,26.367,31.738
1790600229.130372,52.734,-31.738,30.762,24.902
1790600229.134195,-69.824,-13.184,-9.277,-51.758
1790600229.138017,-105.957,-21.484,-73.730,-73.242
1790600229.141840,-10.742,-23.438,-104.492,-36.621
1790600229.145663,39.551,-15.137,-112.793,-27.344
1790600229.149486,-57.129,-19.531,-122.559,-65.430
1790600229.153308,-109.375,-22.461,-166.016,-84.961
1790600229.157131,-27.344,-20.020,-192.871,-47.852
1790600229.160954,46.875,-22.949,-127.441,-27.344
1790600229.164777,-16.602,-26.855,-120.117,-54.688
1790600229.168599,-90.820,-15.137,-165.039,-72.754
1790600229.173402,-51.758,-18.555,-129.395,-50.781
1790600229.177226,51.758,-14.648,-94.727,-9.277
1790600229.181050,26.367,-2.930,-137.207,-13.672
1790600229.184873,-80.078,-11.230,-142.090,-48.828
1790600229.188697,-71.289,-27.344,-122.070,-43.945
1790600229.192521,23.926,-23.438,-132.812,-2.930
1790600229.196344,46.875,-20.508,-148.926,0.488
1790600229.200168,-50.781,-32.227,-129.395,-55.664
1790600229.203992,-82.031,-25.391,-118.652,-74.219
1790600229.207816,4.883,-21.484,-88.867,-38.574
1790600229.211639,62.500,-17.578,-91.797,-11.230
1790600229.215463,-21.973,-16.602,-116.699,-41.016
1790600229.220181,-86.914,-18.555,-86.426,-62.012
1790600229.224005,-21.484,-16.113,-54.199,-31.250
1790600229.227830,55.664,-15.625,-81.055,-4.883
1790600229.231655,-7.324,-15.625,-108.398,-35.156
1790600229.235479,-93.750,-19.043,-95.703,-71.289
1790600229.239304,-55.664,-29.785,-117.676,-59.570
1790600229.243128,43.945,-35.156,-163.574,-10.254
1790600229.246953,32.227,-20.020,-174.316,-1.953
1790600229.250777,-67.383,-16.602,-106.934,-60.059
1790600229.254602,-68.848,-44.434,-73.242,-57.129
1790600229.258426,30.762,-43.945,-83.496,-11.719
1790600229.262251,50.293,-42.480,-112.305,-1.953
1790600229.266962,-57.129,-43.457,-128.418,-44.434
1790600229.270788,-92.773,-31.738,-153.809,-59.082
1790600229.274613,-13.672,-25.879,-177.246,-23.926
1790600229.278439,45.410,-20.508,-168.945,-3.906
1790600229.282264,-24.414,-25.391,-189.941,-22.461
1790600229.286089,-76.660,-29.785,-231.445,-51.758
1790600229.289915,-18.066,-29.785,-260.742,-24.902
1790600229.293740,64.941,-27.832,-254.883,25.391
1790600229.297565,15.625,-37.598,-204.102,-14.160
1790600229.301391,-78.125,-42.480,-201.172,-52.246
1790600229.305216,-55.176,-38.574,-217.285,-26.367
1790600229.309042,29.297,-37.598,-197.754,11.719
1790600229.313637,35.156,-34.180,-192.871,-0.488
1790600229.317463,-45.410,-36.133,-209.961,-40.527
1790600229.321290,-73.242,-47.852,-198.242,-36.133
1790600229.325116,0.000,-66.406,-148.438,4.883
1790600229.328942,43.945,-34.180,-150.879,10.254
1790600229.332768,-41.992,-23.438,-188.965,-35.156
1790600229.336594,-98.145,-35.645,-191.895,-41.992
1790600229.340420,-24.414,-40.527,-116.211,4.395
1790600229.344246,53.223,-44.922,-101.074,29.785
1790600229.348072,-20.996,-36.621,-139.648,-4.883
1790600229.351898,-94.727,-42.480,-130.859,-31.738
1790600229.355725,-43.945,-46.387,-73.242,-43.945
1790600229.360307,0.000,-37.109,-62.988,-18.066
1790600229.364134,0.000,-33.203,-104.492,-18.555
1790600229.367960,0.000,-32.715,-78.125,-51.758
1790600229.371787,0.000,-37.598,-30.762,-43.945
1790600229.375614,0.000,-45.898,-32.715,-7.812
1790600229.379441,0.000,-35.156,-57.617,4.395
1790600229.383268,0.000,-21.973,-55.664,-19.043
1790600229.387094,0.000,-32.227,-45.898,-28.809
1790600229.390921,0.000,-26.855,-25.391,-12.207
1790600229.394748,0.000,-15.625,-42.480,5.859
1790600229.398575,0.000,-33.691,-39.551,-36.133
1790600229.402402,0.000,-39.062,-23.926,-60.059
1790600229.407338,-37.109,-33.203,-41.504,-22.949
1790600229.411166,39.551,-35.156,-43.457,-2.441
1790600229.414994,-8.301,-28.320,-20.508,-40.527
1790600229.418822,-84.473,-16.113,-11.230,-75.684
1790600229.422649,-57.129,-18.555,-26.855,-50.293
1790600229.426477,36.621,-30.762,-28.809,0.488
1790600229.430305,14.648,-23.926,1.953,-20.020
1790600229.434133,-76.660,-19.043,43.945,-63.477
1790600229.437961,-69.336,-15.137,3.906,-57.129
1790600229.441788,14.648,-24.902,-8.789,-9.766
1790600229.445616,35.156,-23.926,68.848,-6.836
1790600229.449444,-52.246,-26.367,78.125,-54.688
1790600229.454366,-78.125,-44.922,45.898,-59.570
1790600229.458195,12.207,-31.738,79.590,-25.391
1790600229.462024,73.730,-4.883,104.980,-6.836
1790600229.465852,-15.137,-20.020,65.918,-41.016
1790600229.469682,-77.148,-30.273,56.152,-58.105
1790600229.473510,-27.832,-19.531,87.402,-23.926
1790600229.477339,35.645,-18.555,94.238,14.648
1790600229.481168,-2.441,-13.672,81.055,-6.348
1790600229.484997,-71.777,-31.738,84.961,-42.969
1790600229.488826,-41.504,-29.785,92.285,-28.320
1790600229.492654,41.016,-10.254,97.656,3.418
1790600229.496483,41.992,-29.785,88.867,-7.324
1790600229.501308,-48.340,-25.879,76.172,-53.711
1790600229.505138,-72.266,-17.090,83.984,-58.105
1790600229.508967,15.137,-26.367,81.055,-26.367
1790600229.512797,55.176,-14.648,45.410,-16.113
1790600229.516627,-15.137,-19.043,18.555,-27.344
1790600229.520457,-69.824,-48.340,30.762,-31.738
1790600229.524286,-29.785,-55.664,55.176,-12.207
1790600229.528116,21.973,-47.363,28.809,-1.953
1790600229.531946,-50.293,-51.758,14.160,-49.316
1790600229.535775,-118.164,-45.898,54.688,-93.262
1790600229.539605,-79.102,-53.711,58.594,-77.148
1790600229.543435,-5.371,-64.941,36.133,-35.645
1790600229.548165,-46.387,-70.801,42.480,-41.016
1790600229.551996,-140.137,-70.801,57.129,-86.426
1790600229.555826,-113.770,-80.566,24.414,-83.984
1790600229.559656,-30.273,-96.191,18.066,-30.273
1790600229.563487,-35.645,-83.008,43.945,-19.043
1790600229.567317,-131.348,-84.473,49.805,-62.988
1790600229.571148,-156.250,-92.773,39.551,-60.059
1790600229.574979,-73.730,-83.008,63.477,-20.996
1790600229.578809,-35.156,-85.938,71.777,-11.230
1790600229.582639,-109.863,-92.285,44.922,-52.734
1790600229.586470,-149.414,-74.219,18.066,-81.543
1790600229.590301,-81.543,-65.430,1.465,-34.180
1790600229.595015,0.000,-58.105,30.762,17.090
1790600229.598846,0.000,-53.223,43.457,-16.113
1790600229.602677,0.000,-64.941,14.160,-61.523
1790600229.606509,0.000,-67.871,10.254,-38.086
1790600229.610340,0.000,-65.430,20.996,6.348
1790600229.614171,0.000,-73.730,-1.465,-5.859
1790600229.618002,0.000,-76.660,-32.227,-51.270
1790600229.621834,0.000,-72.754,-46.875,-43.945
1790600229.625665,0.000,-65.918,-1.953,-1.465
1790600229.629496,0.000,-62.012,-12.207,0.977
1790600229.633328,0.000,-65.918,-49.316,-45.898
1790600229.637159,0.000,-63.965,-55.176,-60.547
1790600229.641807,-24.902,-57.129,-19.531,-9.766
1790600229.645639,35.645,-63.965,14.648,28.320
1790600229.649471,-31.738,-56.641,5.371,-24.902
1790600229.653303,-84.473,-34.180,-1.465,-64.453
1790600229.657135,-21.484,-51.758,8.789,-17.578
1790600229.660967,43.457,-48.828,18.066,27.832
1790600229.664799,9.277,-25.391,-24.414,7.324
1790600229.668631,-57.617,-28.809,-20.508,-39.551
1790600229.672463,-43.457,-33.691,29.297,-45.410
1790600229.676295,26.855,-42.969,3.418,10.254
1790600229.680127,16.113,-42.969,-20.508,10.742
1790600229.683959,-59.082,-44.922,-15.625,-54.688
1790600229.688572,-65.430,-56.152,-19.531,-68.359
1790600229.692405,15.137,-47.852,-34.180,-8.301
1790600229.696237,29.785,-33.691,-54.199,1.465
1790600229.700070,-58.105,-35.645,-20.508,-45.898
1790600229.703903,-86.914,-41.992,1.465,-47.363
1790600229.707736,-19.531,-35.645,-20.996,-4.883
1790600229.711568,41.016,-38.086,-21.973,35.645
1790600229.715401,-7.812,-43.945,6.348,-1.465
1790600229.719234,-83.008,-34.180,0.488,-57.129
1790600229.723066,-69.824,-37.598,-21.973,-54.688
1790600229.726899,14.160,-27.832,-1.465,-14.648
1790600229.730731,-0.977,-15.625,36.621,-33.203
1790600229.735216,-73.242,-23.438,29.785,-77.637
1790600229.739049,-63.965,-30.273,-0.977,-64.941
1790600229.742883,2.930,-30.762,23.926,-13.672
1790600229.746716,16.602,-32.715,49.805,-19.531
1790600229.750549,-59.570,-24.902,30.762,-75.684
1790600229.754382,-84.473,-30.762,-26.855,-62.988
1790600229.758216,-17.578,-38.086,-21.973,-6.348
1790600229.762049,14.160,-35.645,38.574,-0.488
1790600229.765882,-54.688,-26.367,23.926,-48.828
1790600229.769715,-100.586,-24.902,4.395,-67.871
1790600229.773549,-46.875,-32.227,23.438,-38.086
1790600229.777382,4.883,-29.297,16.602,-11.230
1790600229.782229,-40.527,-27.344,-17.578,-40.039
1790600229.786063,-108.398,-27.832,-19.531,-73.242
1790600229.789897,-64.941,-12.695,3.906,-45.898
1790600229.793731,27.344,-16.602,9.766,0.000
1790600229.797565,0.000,-40.039,-30.762,-18.555
1790600229.801399,-81.055,-29.785,-77.637,-77.148
1790600229.805233,-71.289,-13.672,-68.359,-76.172
1790600229.809067,10.254,-13.184,-54.688,-30.273
1790600229.812901,1.953,-32.715,-109.375,-34.180
1790600229.816735,-83.496,-28.809,-113.281,-70.801
1790600229.820570,-98.633,-22.461,-56.641,-75.195
1790600229.824404,-24.902,-28.320,-65.430,-36.133
1790600229.829625,19.531,-43.457,-117.676,-13.184
1790600229.833461,-57.617,-41.016,-116.699,-72.754
1790600229.837296,-111.816,-18.555,-119.141,-99.609
1790600229.841131,-52.246,-11.230,-125.488,-41.992
1790600229.844966,3.418,-16.602,-133.789,7.812
1790600229.848802,-52.734,-27.344,-164.551,-28.809
1790600229.852637,-112.305,-38.086,-170.898,-70.801
1790600229.856472,-69.336,-31.250,-160.645,-42.969
1790600229.860307,22.461,-22.949,-134.766,-2.930
1790600229.864142,-3.906,-35.645,-103.516,-38.086
1790600229.867978,-91.797,-22.461,-116.699,-94.238
1790600229.871813,-91.309,-34.180,-139.160,-81.055
1790600229.876567,-17.578,-40.527,-123.047,-33.691
1790600229.880403,-2.441,-20.020,-107.422,-22.461
1790600229.884239,-84.961,-26.855,-104.980,-75.195
1790600229.888075,-101.074,-31.250,-146.484,-91.309
1790600229.891911,-33.691,-33.691,-155.762,-35.156
1790600229.895747,15.625,-28.320,-135.254,-6.836
1790600229.899583,-43.945,-19.043,-136.719,-52.246
1790600229.903419,-102.051,-18.555,-183.594,-77.148
1790600229.907255,-44.922,-27.832,-237.305,-40.527
1790600229.911091,19.531,-35.156,-258.789,-9.277
1790600229.914927,-24.902,-51.270,-295.898,-52.246
1790600229.918763,-65.430,-51.758,-361.328,-57.129
1790600229.923465,-17.090,-28.320,0.000,3.418
1790600229.927302,33.691,-30.273,0.000,20.508
1790600229.931139,-0.488,-35.156,0.000,-6.348
1790600229.934975,-67.871,-27.344,0.000,-55.176
1790600229.938812,-60.547,-35.645,0.000,-60.547
1790600229.942649,20.508,-46.875,0.000,5.371
1790600229.946486,54.199,-45.410,0.000,39.062
1790600229.950322,-11.719,-43.457,0.000,1.953
1790600229.954159,-47.852,-47.852,0.000,-21.973
1790600229.957996,30.762,-51.758,0.000,28.809
1790600229.961832,93.750,-56.152,0.000,68.359
1790600229.965669,31.738,-53.223,0.000,30.762
1790600229.970289,-22.949,-53.223,-668.457,-0.488
1790600229.974127,6.836,-59.570,-637.207,14.160
1790600229.977964,78.613,-53.711,-654.785,55.176
1790600229.981802,71.289,-47.363,-648.926,44.922
1790600229.985639,1.465,-49.805,-633.789,6.348
1790600229.989476,14.160,-35.156,-624.023,20.996
1790600229.993314,81.543,-47.852,-590.820,66.895
1790600229.997151,71.289,-68.359,-583.496,65.918
1790600230.000988,-19.043,-27.832,-523.438,-5.859
1790600230.004825,-37.109,-12.695,-502.441,-18.066
1790600230.008663,34.668,-26.855,-534.668,40.527
1790600230.012500,66.406,-24.902,-521.973,54.688
1790600230.017072,0.000,-29.297,-477.539,5.371
1790600230.020910,0.000,-34.180,-482.910,-22.949
1790600230.024748,0.000,-32.715,-465.332,17.090
1790600230.028586,0.000,-38.574,-424.316,52.246
1790600230.032423,0.000,-34.668,-430.176,0.000
1790600230.036262,0.000,-28.320,-457.031,-41.504
1790600230.040099,0.000,-24.902,-463.379,0.977
1790600230.043937,0.000,-50.781,-425.293,55.176
1790600230.047775,0.000,-51.270,-380.859,26.855
1790600230.051613,0.000,-14.648,-384.766,-18.066
1790600230.055451,0.000,-18.555,-397.949,1.953
1790600230.059289,0.000,-22.949,-370.117,42.480
1790600230.063798,67.871,-25.391,-354.492,48.340
1790600230.067636,-14.648,-33.203,-375.488,1.465
1790600230.071475,-42.969,-37.109,-394.531,-9.277
1790600230.075313,16.113,-36.133,-358.398,20.508
1790600230.079152,62.012,-48.828,-341.309,30.273
1790600230.082990,-4.883,-57.129,-371.582,-2.930
1790600230.086829,-59.082,-45.898,-374.512,-31.250
1790600230.090667,-0.488,-48.340,-339.844,-13.672
1790600230.094506,60.059,-54.688,-318.848,21.973
1790600230.098344,6.348,-42.480,-369.629,-3.418
1790600230.102183,-52.246,-35.156,-410.156,-33.203
1790600230.106021,-17.578,-23.926,-367.676,0.000
1790600230.110893,45.898,-23.438,-369.141,21.973
1790600230.114732,19.043,-34.180,-448.242,0.000
1790600230.118571,-80.566,-27.344,-477.539,-49.316
1790600230.122411,-89.355,-35.645,-423.340,-62.988
1790600230.126250,-7.324,-45.410,-432.129,-23.926
1790600230.130089,13.672,-37.109,-518.555,-22.949
1790600230.133928,-64.941,-38.574,-574.219,-70.312
1790600230.137768,-95.215,-37.598,-585.938,-78.613
1790600230.141607,-25.879,-41.016,-534.668,-28.809
1790600230.145446,25.391,-46.875,-481.934,13.184
1790600230.149285,-42.480,-47.363,-418.945,-34.180
1790600230.153125,-92.285,-43.457,-382.812,-68.359
1790600230.157923,-36.133,-55.176,-373.535,-26.855
1790600230.161763,24.902,-40.039,-269.531,9.766
1790600230.165603,-6.836,-21.484,-244.141,-16.113
1790600230.169444,-87.891,-25.391,-364.746,-55.664
1790600230.173284,-65.430,-23.438,-509.766,-41.016
1790600230.177124,16.602,-35.645,-634.277,0.000
1790600230.180964,10.254,-43.457,-690.430,-11.230
1790600230.184803,-66.895,-33.203,-693.848,-60.059
1790600230.188644,-78.125,-32.227,-665.039,-43.457
1790600230.192484,-2.930,-34.668,-660.156,17.090
1790600230.196324,26.367,-23.926,-665.527,14.648
1790600230.200164,-46.387,-31.738,-675.293,-37.109
1790600230.204943,0.000,-42.480,-721.680,-39.062
1790600230.208784,0.000,-37.598,-708.984,-0.977
1790600230.212625,0.000,-45.410,-647.461,28.320
1790600230.216466,0.000,-34.668,-719.727,-13.672
1790600230.220306,0.000,-26.855,-816.895,-55.176
1790600230.224147,0.000,-46.875,-820.312,-24.902
1790600230.227988,0.000,-45.898,-825.684,13.672
1790600230.231829,0.000,-48.340,-841.797,10.742
1790600230.235669,0.000,-55.664,-802.246,-7.812
1790600230.239510,0.000,-35.156,-731.445,-23.926
1790600230.243351,0.000,-25.391,-730.957,-29.297
1790600230.247192,0.000,-26.855,-834.473,-48.340
1790600230.251882,-114.746,-25.879,-873.535,-110.840
1790600230.255723,-150.391,-6.836,-854.980,-131.836
1790600230.259565,-83.496,5.859,-864.258,-99.609
1790600230.263406,-63.965,1.465,-897.461,-89.355
1790600230.267248,-130.859,12.207,-920.898,-138.184
1790600230.271089,-179.199,23.926,-886.230,-189.941
1790600230.274930,-128.418,23.438,-827.148,-167.969
1790600230.278772,-69.336,25.879,-835.938,-128.906
1790600230.282613,-112.793,29.297,-819.336,-168.457
1790600230.286455,-162.598,33.203,-778.320,-220.215
1790600230.290296,-128.906,29.785,-785.645,-180.176
1790600230.294137,-56.641,30.273,-779.297,-124.512
1790600230.298768,-73.730,27.344,-790.039,-151.367
1790600230.302610,-145.508,17.090,-799.805,-185.547
1790600230.306452,-127.930,12.207,-790.039,-160.645
1790600230.310294,-33.203,20.508,-738.770,-105.957
1790600230.314136,-2.930,20.996,-689.453,-88.379
1790600230.317978,-82.031,18.066,-617.188,-128.418
1790600230.321820,-114.258,25.391,-530.273,-140.137
1790600230.325662,-34.668,13.184,-419.922,-94.727
1790600230.329504,18.066,-5.371,-378.418,-51.270
1790600230.333346,-47.852,-4.883,-368.652,-82.031
1790600230.337188,-89.844,2.441,-361.328,-109.863
1790600230.341030,-32.227,4.883,-377.441,-60.059
1790600230.345614,36.133,6.836,-363.770,-15.625
1790600230.349457,-8.789,0.000,-325.195,-50.293
1790600230.353300,-87.402,-15.625,-313.477,-83.008
1790600230.357142,-55.664,-15.137,-293.457,-56.152
1790600230.360985,26.367,-21.484,-248.535,-1.465
1790600230.364827,20.020,-24.902,-269.531,-0.977
1790600230.368670,-62.012,-37.598,-305.176,-43.945
1790600230.372512,-71.289,-48.828,-312.500,-41.992
1790600230.376355,18.066,-15.137,-251.953,-1.953
1790600230.380197,53.223,-2.441,-242.676,14.648
1790600230.384040,-39.062,-7.324,-286.133,-34.180
1790600230.387882,-89.844,-7.812,-289.062,-62.500
1790600230.392397,-19.043,-23.926,-251.465,-26.855
1790600230.396240,37.598,-27.832,-270.020,-2.930
1790600230.400084,-29.785,-19.043,-302.734,-33.203
1790600230.403927,-98.633,-25.879,-282.715,-60.547
1790600230.407769,-44.434,-35.645,-243.164,-29.297
1790600230.411613,38.086,-26.367,-254.883,12.207
1790600230.415456,-3.906,-19.531,-330.566,-19.531
1790600230.419299,-88.379,-15.625,-329.102,-66.406
1790600230.423142,-75.684,-14.160,-261.719,-61.035
1790600230.426985,21.973,-23.926,-271.973,-3.906
1790600230.430828,22.461,-19.043,-291.992,4.883
1790600230.434671,-75.684,-7.324,-259.277,-41.016
1790600230.439109,-90.332,-3.418,-231.934,-46.875
1790600230.442952,-1.953,-10.254,-272.461,-0.977
1790600230.446796,28.809,-21.484,-308.105,13.184
1790600230.450639,-70.801,-31.250,-294.434,-37.109
1790600230.454483,-115.723,-33.691,-294.922,-52.734
1790600230.458326,-29.785,-34.668,-308.105,-20.508
1790600230.462170,42.969,-19.531,-286.133,-3.906
1790600230.466013,-29.785,-25.879,-221.680,-50.293
1790600230.469857,-111.816,-41.016,-223.633,-88.867
1790600230.473700,-67.383,-25.879,-260.254,-55.664
1790600230.477543,34.668,-24.414,-230.469,-6.348
1790600230.481387,7.324,-29.297,-178.711,-20.508
1790600230.485793,-97.656,-28.320,-143.066,-62.012
1790600230.489636,-92.285,-27.344,-137.695,-51.758
1790600230.493480,6.348,-31.738,-122.070,-20.996
1790600230.497324,20.996,-30.762,-87.402,-35.156
1790600230.501168,-75.195,-28.809,-112.305,-71.777
1790600230.505012,-94.727,-30.762,-144.531,-62.500
1790600230.508856,12.207,-47.363,-137.695,0.000
1790600230.512700,59.570,-48.828,-125.488,24.902
1790600230.516544,-44.922,-28.809,-132.812,-41.016
1790600230.520388,-100.098,-18.066,-171.875,-63.965
1790600230.524231,-43.945,-18.555,-104.492,-32.715
1790600230.528075,18.066,-23.926,-42.969,-18.066
1790600230.532795,-42.969,-32.715,-71.289,-48.340
1790600230.536640,-126.953,-33.203,-77.148,-83.496
1790600230.540484,-96.680,-27.832,-43.945,-68.848
1790600230.544329,3.906,-29.785,-2.930,-30.273
1790600230.548173,-8.301,-36.133,-1.953,-37.598
1790600230.552018,-112.793,-41.016,-23.926,-79.590
1790600230.555862,-103.516,-48.340,-5.859,-72.266
1790600230.559707,4.883,-55.176,11.230,-24.902
1790600230.563551,29.297,-48.340,-23.926,-12.695
1790600230.567396,-76.172,-41.504,-30.762,-56.641
1790600230.571240,-113.281,-39.062,1.953,-76.172
1790600230.575085,-18.555,-45.898,-3.906,-36.621
1790600230.579749,46.387,-42.480,-37.598,-5.859
1790600230.583594,-39.062,-30.273,-55.176,-41.016
1790600230.587439,-104.980,-29.785,-70.801,-64.941
1790600230.591284,-39.551,-29.785,-83.496,-28.320
1790600230.595129,37.109,-35.156,-107.422,-0.488
1790600230.598974,-28.809,-40.039,-133.789,-34.180
1790600230.602820,-119.141,-32.227,-137.695,-77.637
1790600230.606665,-83.984,-36.133,-136.230,-60.547
1790600230.610510,15.137,-39.062,-116.211,-10.254
1790600230.614355,7.324,-41.016,-101.562,-5.859
1790600230.618200,-99.609,-52.734,-99.121,-42.969
1790600230.622045,-113.281,-62.988,-114.258,-54.688
1790600230.626694,-7.812,-49.805,-111.816,-22.461
1790600230.630540,28.809,-29.785,-97.168,-18.555
1790600230.634386,-65.918,-31.738,-96.191,-55.664
1790600230.638232,-96.680,-40.527,-116.699,-60.059
1790600230.642077,-13.184,-40.039,-120.117,-20.020
1790600230.645923,46.875,-22.949,-105.957,-1.953
1790600230.649769,-27.344,-33.691,-121.094,-46.875
1790600230.653614,-101.074,-39.062,-133.789,-65.918
1790600230.657460,-59.570,-20.996,-125.000,-31.250
1790600230.661306,26.855,-27.344,-70.312,-6.348
1790600230.665151,-6.836,-32.227,-71.289,-28.809
1790600230.668997,-93.750,-36.133,-106.445,-42.969
1790600230.673586,-73.730,-51.758,0.000,-28.809
1790600230.677432,21.973,-42.480,0.000,-1.465
1790600230.681279,21.973,-24.414,0.000,-14.648
1790600230.685125,-90.332,-26.367,0.000,-67.383
1790600230.688971,-114.746,-37.598,0.000,-62.988
1790600230.692817,-17.090,-28.809,0.000,-27.344
1790600230.696663,30.273,-25.879,0.000,-9.766
1790600230.700510,-59.570,-27.344,0.000,-41.504
1790600230.704356,-102.051,-15.137,0.000,-58.105
1790600230.708202,-22.949,-19.043,0.000,-16.602
1790600230.712048,55.176,-26.855,0.000,13.184
1790600230.715894,-14.648,-24.414,0.000,-17.090
1790600230.720458,0.000,-26.855,72.754,-56.152
1790600230.724304,0.000,-22.949,65.918,-46.875
1790600230.728151,0.000,-25.391,37.109,-5.371
1790600230.731998,0.000,-22.949,14.648,-13.672
1790600230.735845,0.000,-17.578,31.250,-56.152
1790600230.739691,0.000,-32.715,-1.465,-48.828
1790600230.743538,0.000,-40.039,-37.109,-13.184
1790600230.747385,0.000,-41.992,-60.059,-4.395
1790600230.751231,0.000,-40.527,-16.602,-54.688
1790600230.755078,0.000,-34.180,-8.301,-63.965
1790600230.758925,0.000,-22.461,-15.137,-11.719
1790600230.762772,0.000,-24.902,-4.395,19.043
1790600230.767281,-34.668,-27.344,6.348,-19.043
1790600230.771128,-119.629,-35.156,-14.648,-56.641
1790600230.774975,-52.734,-50.293,-45.898,-42.480
1790600230.778822,18.555,-41.504,-30.762,-23.438
1790600230.782670,-42.480,-33.203,-36.621,-41.992
1790600230.786517,-129.883,-39.062,-59.082,-73.730
1790600230.790364,-94.727,-47.363,-69.336,-51.270
1790600230.794211,6.348,-45.898,-48.828,-3.418
1790600230.798058,-8.789,-35.645,20.020,-22.461
1790600230.801905,-105.469,-37.109,25.391,-62.988
1790600230.805753,-98.145,-47.363,-0.488,-54.199
1790600230.809600,-3.906,-51.758,22.949,-16.602
1790600230.814054,0.000,-41.504,16.602,-3.418
1790600230.817901,0.000,-38.574,3.906,-45.410
1790600230.821749,0.000,-38.086,0.488,-66.406
1790600230.825597,0.000,-46.875,27.832,-27.832
1790600230.829444,0.000,-49.316,30.273,-1.465
1790600230.833292,0.000,-42.969,-3.906,-38.574
1790600230.837139,0.000,-47.852,-5.859,-67.383
1790600230.840987,0.000,-44.434,35.645,-39.062
1790600230.844835,0.000,-44.922,31.250,-7.812
1790600230.848682,0.000,-66.895,-31.250,-30.273
1790600230.852530,0.000,-58.594,-36.133,-59.082
1790600230.856377,0.000,-21.973,-12.695,-53.223
1790600230.860759,6.836,-28.809,-18.555,-30.273
1790600230.864607,3.418,-49.805,-82.520,-30.762
1790600230.868455,-83.496,-38.574,-101.074,-53.711
1790600230.872303,-88.379,-35.645,-65.430,-48.340
1790600230.876151,-4.395,-32.715,-74.219,-22.461
1790600230.879999,30.273,-35.156,-124.512,-7.812
1790600230.883847,-54.199,-40.527,-125.000,-36.133
1790600230.887695,-105.957,-41.016,-99.121,-56.641
1790600230.891543,-27.344,-42.480,-77.148,-36.621
1790600230.895391,48.340,-37.598,-106.934,-5.859
1790600230.899239,-22.461,-44.922,-98.633,-31.738
1790600230.903086,-90.820,-48.828,-78.125,-60.547
1790600230.907809,-36.133,-27.832,-90.820,-22.949
1790600230.911657,54.688,-29.297,-90.332,15.625
1790600230.915506,7.324,-35.645,-87.402,-13.184
1790600230.919354,-93.262,-41.992,-84.473,-71.777
1790600230.923203,-84.473,-49.805,-100.586,-69.824
1790600230.927052,11.719,-45.410,-117.188,-24.414
1790600230.930900,27.344,-43.457,-102.051,-22.461
1790600230.934749,-78.613,-41.504,-84.473,-61.035
1790600230.938597,-103.027,-44.434,-140.137,-60.059
1790600230.942446,-9.277,-43.457,-133.301,-30.273
1790600230.946294,35.645,-34.668,-67.383,-21.973
1790600230.950143,-43.945,-32.227,-81.055,-51.758
1790600230.954808,-97.168,-35.645,-135.742,-73.242
1790600230.958658,-29.297,-29.785,-180.664,-49.316
1790600230.962507,50.781,-23.926,-192.383,-18.555
1790600230.966356,-12.695,-29.297,-185.059,-43.457
1790600230.970205,-96.191,-33.691,-222.656,-70.801
1790600230.974054,-61.523,-27.344,-248.535,-56.641
1790600230.977903,30.762,-25.879,-239.746,-23.926
1790600230.981752,10.742,-35.156,-250.000,-29.297
1790600230.985601,-86.426,-35.156,-243.652,-57.617
1790600230.989450,-85.938,-33.203,-205.566,-61.035
1790600230.993299,4.883,-32.227,-170.898,-19.043
1790600230.997149,29.785,-26.367,-181.641,-8.789
1790600231.001751,-58.105,-31.738,-153.320,-56.152
1790600231.005600,-80.078,-30.273,-97.168,-52.246
1790600231.009450,10.254,-26.367,-52.734,-3.906
1790600231.013299,43.457,-34.668,-54.199,8.301
1790600231.017149,-64.941,-35.156,-59.082,-44.922
1790600231.020999,-121.094,-24.902,-45.410,-67.871
1790600231.024848,-47.363,-27.344,-6.836,-25.879
1790600231.028698,47.363,-32.227,49.805,1.953
1790600231.032547,3.418,-33.203,73.242,-27.344
1790600231.036397,-87.891,-28.809,143.066,-50.293
1790600231.040247,-54.688,-29.785,160.156,-38.574
1790600231.044096,41.992,-28.809,137.695,-3.906
1790600231.048674,0.000,-27.832,130.371,-3.418
1790600231.052524,0.000,-40.039,107.422,-43.457
1790600231.056374,0.000,-37.598,68.359,-40.527
1790600231.060224,0.000,-20.508,77.148,-6.836
1790600231.064074,0.000,-20.508,76.660,-7.812
1790600231.067924,0.000,-24.902,38.086,-38.086
1790600231.071774,0.000,-33.203,15.625,-40.039
1790600231.075624,0.000,-43.945,33.203,-9.277
1790600231.079474,0.000,-20.996,36.621,9.766
1790600231.083325,0.000,-13.184,49.316,-29.785
1790600231.087175,0.000,-19.531,48.340,-52.734
1790600231.091025,0.000,-21.484,47.363,-21.973
1790600231.094707,27.344,-31.738,112.305,8.789
1790600231.098557,-75.684,-27.344,147.461,-20.020
1790600231.102407,-76.660,-32.227,113.770,-58.105
1790600231.106256,25.879,-42.480,92.773,-44.922
1790600231.110106,54.199,-38.574,95.703,-8.789
1790600231.113956,-42.480,-35.645,48.340,-14.160
1790600231.117806,-81.055,-24.414,39.551,-57.617
1790600231.121656,1.465,-29.785,-6.836,-41.016
1790600231.125506,62.500,-33.691,25.879,1.465
1790600231.129356,-19.043,-27.832,98.145,4.395
1790600231.133206,-90.332,-30.273,46.387,-30.762
1790600231.137056,-43.945,-31.738,37.598,-50.781
1790600231.141538,-26.367,-26.367,74.707,-22.461
1790600231.145389,51.758,-23.926,65.430,14.160
1790600231.149239,-9.766,-35.645,34.180,-17.578
1790600231.153090,-89.844,-40.039,36.133,-48.828
1790600231.156940,-41.504,-39.551,36.133,-16.113
1790600231.160790,44.922,-22.461,16.602,15.625
1790600231.164641,17.090,-27.344,-47.363,-8.301
1790600231.168491,-80.566,-43.457,-62.988,-51.758
1790600231.172342,-65.430,-27.832,-32.227,-43.457
1790600231.176192,49.805,-26.855,-51.270,18.066
1790600231.180042,39.551,-34.668,-40.527,7.324
1790600231.183893,-83.008,-32.227,-39.551,-58.105
1790600231.188310,-101.074,-26.855,-84.961,-55.664
1790600231.192160,-17.578,-23.926,-76.660,-21.484
1790600231.196011,37.109,-22.461,-50.781,-6.348
1790600231.199862,-44.434,-27.832,-45.898,-51.270
1790600231.203713,-111.328,-31.250,-56.641,-80.566
1790600231.207563,-47.363,-36.133,-66.895,-32.227
1790600231.211414,28.809,-35.156,-32.715,2.441
1790600231.215265,-29.297,-34.180,-0.977,-38.086
1790600231.219116,-101.562,-44.922,-24.414,-72.754
1790600231.222966,-62.500,-47.852,-83.008,-49.805
1790600231.226817,8.301,-38.086,-87.891,3.906
1790600231.230668,-9.766,-22.949,-68.848,-2.441
1790600231.235369,-98.145,-26.855,-97.656,-50.781
1790600231.239220,-88.867,-35.645,-111.816,-40.527
1790600231.243072,6.836,-25.391,-46.875,-2.441
1790600231.246923,25.391,-8.301,17.090,-11.230
1790600231.250774,-65.918,-22.949,13.672,-53.223
1790600231.254626,-98.633,-32.227,-4.395,-62.500
1790600231.258477,-20.020,-20.020,30.273,-31.738
1790600231.262328,36.621,-14.160,80.566,-19.043
1790600231.266179,-44.922,-35.645,90.820,-60.547
1790600231.270031,-103.027,-40.039,59.082,-62.012
1790600231.273882,-42.480,-11.719,80.078,-29.785
1790600231.277733,35.156,-1.465,139.160,-9.277
1790600231.282413,-1.953,-9.277,121.094,-27.832
1790600231.286264,-86.426,-21.484,104.492,-72.266
1790600231.290116,-72.754,-19.531,140.137,-62.500
1790600231.293968,11.230,-9.766,158.203,-12.207
1790600231.297820,5.371,-8.301,139.160,-2.930
1790600231.301672,-94.238,-41.016,117.676,-37.598
1790600231.305524,-105.469,-41.016,118.164,-38.086
1790600231.309376,-8.301,-22.461,166.016,-8.301
1790600231.313227,29.785,-22.949,144.043,-16.602
1790600231.317079,-64.941,-9.277,107.910,-61.035
1790600231.320931,-104.004,-17.090,166.016,-72.754
1790600231.324783,-6.348,-8.789,179.199,-16.113
1790600231.329380,0.000,4.395,139.648,13.672
1790600231.333232,0.000,-3.418,131.836,-26.855
1790600231.337084,0.000,-16.113,119.141,-64.941
1790600231.340937,0.000,-17.090,117.676,-45.410
1790600231.344789,0.000,-25.391,104.980,-4.883
1790600231.348641,0.000,-29.297,79.590,-24.414
1790600231.352494,0.000,-43.457,85.449,-70.312
1790600231.356346,0.000,-51.270,79.590,-53.711
1790600231.360198,0.000,-29.785,69.336,7.324
1790600231.364050,0.000,-17.578,54.688,14.648
1790600231.367903,0.000,-2.930,33.203,-21.973
1790600231.371755,0.000,-12.695,-3.906,-0.977
1790600231.376369,1.465,-20.996,4.883,33.203
1790600231.380222,7.324,-24.902,30.762,19.043
1790600231.384075,-75.195,-42.480,25.391,-46.875
1790600231.387928,-119.141,-48.340,-31.250,-88.867
1790600231.391780,-58.105,-48.340,-42.480,-67.871
1790600231.395633,14.160,-63.477,-35.645,-40.527
1790600231.399486,-50.781,-58.594,-48.828,-67.871
1790600231.403339,-144.043,-63.477,-88.379,-99.121
1790600231.407192,-115.234,-85.449,-124.512,-80.078
1790600231.411044,-27.832,-76.660,-88.379,-46.875
1790600231.414897,-65.918,-69.336,-106.934,-52.246
1790600231.418750,-164.551,-74.707,-154.785,-89.844
1790600231.423233,-159.668,-92.285,-155.273,-83.008
1790600231.427086,-66.895,-85.938,-122.559,-33.203
1790600231.430939,-37.598,-84.961,-129.395,-12.695
1790600231.434792,-126.953,-88.867,-157.227,-47.852
1790600231.438645,-158.691,-111.816,-155.273,-61.523
1790600231.442498,-65.430,-124.023,-144.043,-6.836
1790600231.446352,-3.418,-85.449,-154.297,39.062
1790600231.450205,-96.191,-64.941,-167.969,-14.648
1790600231.454058,-159.180,-62.012,-173.828,-75.195
1790600231.457911,-82.031,-53.223,-158.203,-39.062
1790600231.461764,6.348,-65.918,-180.664,15.137
1790600231.465617,-25.391,-84.473,-229.980,-13.184
1790600231.470077,-109.375,-71.289,-197.266,-44.922
1790600231.473931,-95.215,-49.316,-158.203,-14.648
1790600231.477784,1.465,-51.758,-170.898,27.832
1790600231.481638,-1.465,-54.688,-153.320,-0.977
1790600231.485492,-90.332,-51.758,-134.766,-68.359
1790600231.489345,-88.379,-56.152,-146.973,-58.105
1790600231.493199,7.324,-48.340,-134.277,-5.371
1790600231.497052,28.320,-54.199,-134.277,20.020
1790600231.500906,-74.707,-50.293,-73.242,-21.484
1790600231.504759,-102.051,-45.410,-36.621,-45.898
1790600231.508613,-18.066,-59.570,-57.129,4.395
1790600231.512466,41.992,-81.055,-60.547,44.922
1790600231.516879,-19.531,-54.688,-44.922,-2.441
1790600231.520733,-77.148,-11.719,-62.500,-46.387
1790600231.524586,-31.250,-22.949,-72.266,-15.625
1790600231.528440,47.852,-27.832,-52.246,30.762
1790600231.532294,15.625,-19.043,-59.082,-6.348
1790600231.536148,-62.988,-22.461,-92.773,-63.965
1790600231.540002,-50.293,-36.621,-106.934,-36.621
1790600231.543856,20.996,-39.062,-90.332,18.066
1790600231.547710,13.672,-37.109,-68.848,15.625
1790600231.551564,-73.242,-30.762,-63.477,-29.785
1790600231.555418,-73.730,-29.297,-85.449,-31.250
1790600231.559271,10.254,-39.062,-48.828,16.602
1790600231.563621,38.574,-24.414,-38.086,16.113
1790600231.567475,-37.109,-20.996,-75.684,-37.598
1790600231.571329,-74.707,-29.785,-88.867,-63.477
1790600231.575184,-15.137,-30.762,-53.711,-32.715
1790600231.579038,44.434,-29.297,-34.668,9.766
1790600231.582892,-0.488,-27.344,-54.688,-16.113
1790600231.586746,-62.500,-41.504,-47.852,-55.176
1790600231.590600,-35.156,-44.434,-17.090,-35.156
1790600231.594455,42.480,-32.227,11.719,13.184
1790600231.598309,12.207,-34.668,-10.742,-3.906
1790600231.602163,-72.266,-25.391,-5.371,-57.129
1790600231.606017,-65.918,-28.809,47.852,-50.293
1790600231.610339,15.137,-25.879,51.758,17.090
1790600231.614194,29.785,-20.508,6.348,25.879
1790600231.618048,-56.641,-14.648,6.836,-50.293
1790600231.621903,-72.266,-16.113,45.898,-65.918
1790600231.625757,6.836,-19.531,38.086,-6.348
1790600231.629612,47.852,-11.230,19.043,18.066
1790600231.633466,-28.320,-15.625,13.184,-47.852
1790600231.637321,-86.914,-20.996,21.973,-87.402
1790600231.641175,-34.668,-29.785,61.523,-40.039
1790600231.645030,20.508,-45.410,40.527,1.465
1790600231.648884,-31.250,-17.578,42.480,-38.086
1790600231.652739,-98.145,-16.602,84.473,-79.590
1790600231.657319,-64.453,-52.246,68.359,-58.105
1790600231.661174,25.879,-11.719,60.547,10.742
1790600231.665029,59.082,8.301,68.359,45.898
1790600231.668883,-13.184,-14.160,57.129,-13.184
1790600231.672738,-78.125,-20.020,30.273,-63.477
1790600231.676593,-21.484,-19.531,-0.977,-13.184
1790600231.680448,27.344,-14.648,-10.742,27.344
1790600231.684303,-42.969,-32.715,-19.043,-48.340
1790600231.688158,-57.617,-44.922,-114.746,-61.523
1790600231.692013,16.602,-37.598,-151.367,20.020
1790600231.695868,57.617,-28.809,-119.141,39.551
1790600231.699723,18.066,-29.297,-155.762,-12.695
1790600231.704267,-17.578,-26.367,-198.730,-33.203
1790600231.708122,29.785,-23.438,-187.500,-3.418
1790600231.711978,101.074,-21.973,-145.996,35.156
1790600231.715833,62.012,-17.578,-143.555,19.531
1790600231.719688,-15.625,-20.996,-194.336,-26.367
1790600231.723544,25.879,-33.691,-213.867,3.418
1790600231.727399,96.680,-51.270,-175.293,49.805
1790600231.731254,87.402,-37.598,-155.273,43.457
1790600231.735110,27.832,-29.785,-124.512,4.883
1790600231.738965,13.672,-28.320,-91.309,-5.371
1790600231.742820,83.008,1.465,-48.828,42.480
1790600231.746675,112.305,2.930,-63.965,62.500
1790600231.751202,27.832,-15.137,-102.539,-1.465
1790600231.755058,-3.906,-11.719,-78.613,-15.137
1790600231.758914,50.293,-20.508,-61.523,38.574
1790600231.762769,94.727,-38.086,-82.520,58.594
1790600231.766625,42.969,-12.207,-96.191,3.418
1790600231.770481,-18.555,-8.789,-87.891,-37.598
1790600231.774336,18.066,-22.949,-59.082,-12.695
1790600231.778192,79.590,-22.949,-81.055,40.039
1790600231.782048,53.223,-22.949,-123.535,28.320
1790600231.785903,-19.531,-17.578,-83.008,-31.250
1790600231.789759,-5.371,-22.461,-61.523,-13.184
1790600231.793615,66.406,-17.578,-83.496,50.293
1790600231.798113,61.035,-20.996,-115.234,39.551
1790600231.801969,-12.695,-26.855,-125.488,-28.809
1790600231.805825,-20.996,-28.320,-141.113,-32.227
1790600231.809681,54.199,-39.551,-152.344,27.832
1790600231.813538,72.754,-33.203,-167.480,44.922
1790600231.817394,2.441,-9.766,-169.922,-20.996
1790600231.821250,-25.879,-4.395,-202.148,-47.363
1790600231.825106,24.902,-17.578,-217.285,5.859
1790600231.828962,72.754,-17.578,-204.102,47.363
1790600231.832818,24.902,-14.160,-207.520,12.207
1790600231.836674,-29.785,-20.020,-249.023,-40.039
1790600231.840530,-1.953,-31.250,-304.688,-14.160
1790600231.844996,44.922,-29.297,-277.344,46.387
1790600231.848852,29.297,-39.062,-276.855,35.156
1790600231.852709,-33.691,-56.641,-363.281,-12.207
1790600231.856565,-54.199,-32.715,-404.297,-42.480
1790600231.860422,-4.395,-4.395,-403.320,-27.344
1790600231.864278,11.719,-13.184,-440.430,-20.020
1790600231.868135,-54.688,-17.578,-479.980,-89.355
1790600231.871991,-67.383,-16.602,-517.578,-101.074
1790600231.875848,-8.789,-17.090,-471.680,-46.387
1790600231.879704,28.320,-10.254,-485.352,-19.531
1790600231.883560,-29.785,-16.602,-539.062,-56.641
1790600231.887417,-86.914,-30.273,-541.016,-99.121
1790600231.891785,-35.645,-25.879,-512.695,-61.035
1790600231.895641,37.109,-25.391,-505.371,1.953
1790600231.899498,-8.789,-25.391,-545.410,-27.344
1790600231.903355,-80.078,-21.484,-546.387,-75.195
1790600231.907212,-41.992,-14.648,-530.273,-38.086
1790600231.911068,26.367,-8.789,-534.668,24.902
1790600231.914925,24.414,-30.273,-569.336,18.555
1790600231.918782,-38.086,-9.277,-542.969,-29.785
1790600231.922639,-65.918,8.301,-452.148,-40.527
1790600231.926495,-2.930,-24.902,-442.871,5.371
1790600231.930352,14.160,-34.668,-463.867,7.812
1790600231.934209,-55.176,-19.043,-464.844,-57.129
1790600231.938566,-61.035,-20.020,-453.613,-58.105
1790600231.942423,-0.977,-22.461,-448.242,-11.230
1790600231.946280,26.367,-28.320,-452.148,6.836
1790600231.950137,-21.484,-20.996,-391.113,-27.832
1790600231.953994,-58.594,0.977,-385.254,-49.316
1790600231.957851,-15.137,-4.883,-416.992,-24.414
1790600231.961708,41.016,-21.484,-413.574,0.000
1790600231.965565,-0.977,-33.203,-387.695,-28.320
1790600231.969422,-55.176,-23.438,-368.652,-59.570
1790600231.973279,-33.203,-18.066,-371.582,-41.016
1790600231.977136,25.879,-25.391,-358.887,14.648
1790600231.980993,22.949,-20.020,-344.727,5.859
1790600231.985332,-63.965,-29.297,-361.816,-69.824
1790600231.989190,-68.359,-48.828,-408.203,-64.941
1790600231.993047,1.953,-44.434,-390.137,-10.254
1790600231.996904,18.066,-54.199,-334.961,-3.906
1790600232.000762,-49.805,-57.129,-372.070,-59.082
1790600232.004619,-83.984,-37.109,-414.551,-68.359
1790600232.008476,-20.996,-30.762,-382.812,-15.625
1790600232.012334,30.762,-19.531,-372.559,22.461
1790600232.016191,-30.273,-31.738,-375.000,-30.273
1790600232.020048,-95.215,-36.621,-403.320,-72.754
1790600232.023906,-53.711,-31.738,-368.164,-33.203
1790600232.027763,14.648,-40.527,-325.195,9.766
1790600232.032347,-0.488,-41.992,-364.746,-8.789
1790600232.036204,-66.406,-33.203,-365.723,-64.941
1790600232.040062,-71.289,-33.691,-340.820,-70.801
1790600232.043920,3.418,-45.410,-329.102,-16.113
1790600232.047777,2.441,-41.992,-364.258,-12.207
1790600232.051635,-84.473,-36.621,-394.043,-68.848
1790600232.055493,-80.566,-26.855,-368.652,-67.871
1790600232.059351,-2.930,-21.973,-324.219,-11.719
1790600232.063208,39.062,-38.574,-371.582,17.578
1790600232.067066,-19.531,-48.828,-411.133,-24.902
1790600232.070924,-64.941,-29.785,-335.938,-58.594
1790600232.074781,-19.043,-20.020,-297.363,-23.438
1790600232.079283,37.598,-25.879,-308.105,29.297
1790600232.083141,-13.672,-22.949,-269.531,-16.113
1790600232.086999,-72.754,-23.926,-246.094,-54.199
1790600232.090857,-32.227,-28.320,-255.859,-20.020
1790600232.094715,28.320,-37.109,-244.629,35.156
1790600232.098573,-3.906,-51.758,-244.141,6.348
1790600232.102431,-69.336,-48.340,-232.422,-59.570
1790600232.106289,-48.340,-28.809,-253.418,-40.039
1790600232.110147,19.531,-37.598,-242.676,14.160
1790600232.114005,34.668,-56.152,-203.125,22.461
1790600232.117863,-37.598,-30.273,-232.910,-34.180
1790600232.121722,-69.336,-18.066,-285.645,-59.082
1790600232.126181,-5.859,-26.855,-257.324,-9.277
1790600232.130039,27.832,-22.949,-224.121,19.043
1790600232.133898,-34.668,-27.344,-238.281,-36.621
1790600232.137756,-83.008,-29.785,-240.723,-57.617
1790600232.141614,-37.109,-40.527,-225.098,-10.254
1790600232.145473,21.973,-45.410,-228.027,32.227
1790600232.149331,-22.461,-49.316,-225.098,-21.484
1790600232.153190,-86.914,-45.898,-245.117,-74.219
1790600232.157048,-62.012,-27.832,-268.066,-39.062
1790600232.160907,7.812,-35.156,-204.102,19.043
1790600232.164765,-3.418,-51.270,-243.164,18.066
1790600232.168623,-73.730,-52.734,-306.641,-32.715
1790600232.173046,-74.219,-35.156,-281.738,-36.621
1790600232.176904,-1.465,-28.809,-257.324,7.812
1790600232.180763,22.949,-38.086,-278.320,10.254
1790600232.184622,-47.852,-43.457,-300.781,-59.082
1790600232.188480,-96.680,-41.992,-298.828,-94.238
1790600232.192339,-35.645,-46.875,-272.461,-48.340
1790600232.196198,14.160,-62.012,-277.344,-10.742
1790600232.200057,-50.781,-54.199,-286.621,-53.711
1790600232.203915,-100.098,-36.621,-261.230,-81.543
1790600232.207774,-57.129,-22.461,-244.629,-43.945
1790600232.211633,15.625,-33.203,-239.746,6.836
1790600232.215492,-17.578,-56.641,-270.508,-15.137
1790600232.219894,-85.938,-36.133,-235.352,-52.734
1790600232.223753,-61.523,-22.949,-196.289,-39.551
1790600232.227612,9.766,-35.156,-193.848,3.906
1790600232.231471,3.418,-40.527,-177.246,8.789
1790600232.235330,-77.148,-38.574,-170.410,-49.805
1790600232.239189,-88.379,-44.434,-183.594,-58.594
1790600232.243048,-14.648,-45.898,-177.246,5.859
1790600232.246907,17.090,-39.551,-181.152,20.020
1790600232.250767,-58.105,-46.387,-130.371,-47.852
1790600232.254625,-99.609,-50.293,-131.836,-76.660
1790600232.258484,-44.434,-41.016,-157.715,-35.645
1790600232.262343,14.648,-46.387,-133.789,3.418
1790600232.266704,-28.809,-41.504,-124.512,-41.992
1790600232.270563,-83.984,-46.875,-120.117,-80.566
1790600232.274423,-60.059,-38.574,-118.164,-52.734
1790600232.278282,9.277,-22.461,-109.375,2.441
1790600232.282141,-14.160,-33.691,-119.141,-18.555
1790600232.286000,-92.285,-29.297,-128.418,-72.754
1790600232.289860,-65.430,-36.133,-142.578,-49.316
1790600232.293719,45.898,-71.777,-66.406,49.805
1790600232.297579,64.453,-51.270,17.578,56.152
1790600232.301438,-65.430,-17.090,-31.250,-61.523
1790600232.305297,-126.953,-17.090,-62.500,-111.328
1790600232.309156,-52.246,-10.254,-50.781,-68.848
1790600232.313737,-28.320,-6.836,-66.895,-50.781
1790600232.317597,-136.230,-8.789,-69.336,-134.277
1790600232.321456,-210.449,-8.301,-44.434,-199.219
1790600232.325316,-172.852,8.301,5.371,-179.688
1790600232.329176,-98.145,-13.184,-13.672,-147.949
1790600232.333035,-144.043,-37.109,-75.684,-184.082
1790600232.336895,-214.844,11.719,-107.910,-211.426
1790600232.340755,-181.641,24.414,-111.328,-186.523
1790600232.344615,-87.402,10.742,-83.984,-135.742
1790600232.348474,-87.402,5.859,-105.469,-126.953
1790600232.352334,-162.598,5.859,-95.215,-152.832
1790600232.356194,-146.484,2.441,-111.328,-130.371
1790600232.360482,-69.824,0.000,-191.406,-88.379
1790600232.364341,-51.270,-5.859,-237.793,-84.473
1790600232.368201,-128.906,-17.090,-219.727,-130.371
1790600232.372061,-148.926,-17.578,-150.391,-137.207
1790600232.375921,-61.035,-11.719,-164.551,-78.613
1790600232.379781,-8.789,-11.719,-223.633,-49.805
1790600232.383641,-69.336,-13.184,-175.293,-93.750
1790600232.387501,-102.051,-18.066,-72.266,-107.910
1790600232.391361,-36.133,-32.715,-6.836,-60.547
1790600232.395221,41.016,-25.391,-100.586,-12.695
1790600232.399081,-6.836,-13.672,-153.809,-35.645
1790600232.402941,-91.797,-9.766,-119.141,-82.031
1790600232.407468,-62.988,-17.090,-156.250,-68.848
1790600232.411328,20.996,-21.973,-126.953,-27.344
1790600232.415188,6.348,-21.484,-75.684,-30.273
1790600232.419049,-65.918,-32.227,-67.871,-51.758
1790600232.422909,-71.777,-26.855,-126.465,-48.828
1790600232.426769,-24.414,-7.812,-161.133,-39.062
1790600232.430629,-22.949,-10.254,-140.137,-52.246
1790600232.434490,-110.840,-18.066,-81.543,-98.633
1790600232.438350,-142.090,-31.738,-98.633,-114.258
1790600232.442210,-67.383,-36.621,-130.371,-81.055
1790600232.446071,-3.418,-27.832,-95.703,-58.105
1790600232.449931,-64.453,-28.320,-132.324,-87.891
1790600232.454414,-117.188,-18.066,-209.473,-103.027
1790600232.458274,-43.945,-9.766,-243.164,-78.613
1790600232.462135,33.691,-6.836,-279.297,-41.504
1790600232.465996,-5.859,-8.301,-350.098,-52.246
1790600232.469856,-90.820,-19.043,-390.137,-88.867
1790600232.473717,-69.336,-16.602,-381.836,-64.453
1790600232.477577,24.902,-9.277,-368.652,-21.484
1790600232.481438,24.414,-26.367,-389.160,-36.621
1790600232.485299,-61.523,-45.898,-356.934,-75.195
1790600232.489159,-70.312,-27.832,-290.039,-84.473
1790600232.493020,11.230,-27.344,-224.609,-38.086
1790600232.496881,38.574,-23.438,-210.938,-6.836
1790600232.501336,-61.035,-46.387,-208.008,-63.477
1790600232.505197,-107.910,-74.707,-175.781,-84.473
1790600232.509058,-39.062,-36.133,-165.039,-51.270
1790600232.512919,19.531,-25.391,-208.984,-27.344
1790600232.516780,-45.410,-21.484,-215.332,-52.734
1790600232.520641,-116.699,-30.273,-165.039,-66.406
1790600232.524502,-67.383,-31.738,-92.773,-47.363
1790600232.528363,18.066,-24.414,-73.242,-21.973
1790600232.532223,0.488,-32.227,-101.074,-21.973
1790600232.536084,-82.520,-31.738,-27.832,-66.406
1790600232.539945,-71.777,-33.691,0.488,-69.824
1790600232.543806,15.625,-44.922,-7.812,-13.672
1790600232.548226,24.902,-61.523,24.414,0.488
1790600232.552087,-41.992,-60.547,51.758,-21.973
1790600232.555948,-77.148,-32.227,35.645,-41.504
1790600232.559809,-44.434,-18.555,25.391,-61.035
1790600232.563670,14.160,-21.484,25.391,-47.363
1790600232.567532,-45.410,-32.715,44.434,-66.895
1790600232.571393,-113.281,-39.551,46.875,-98.633
1790600232.575254,-62.012,-46.387,50.293,-65.918
1790600232.579115,20.996,-35.156,98.633,-28.320
1790600232.582977,-28.809,-25.879,125.000,-54.199
1790600232.586838,-108.887,-35.156,103.027,-69.824
1790600232.590699,-64.941,-33.203,94.727,-37.109
1790600232.595059,23.926,-33.691,154.785,-9.277
1790600232.598920,4.883,-40.527,198.730,-20.020
1790600232.602782,-83.496,-35.645,190.918,-45.898
1790600232.606643,-78.125,-29.297,204.102,-56.641
1790600232.610505,13.184,-26.367,234.863,-30.762
1790600232.614366,35.156,-35.156,232.422,-19.043
1790600232.618227,-57.129,-45.410,246.582,-59.570
1790600232.622089,-89.355,-42.480,214.355,-57.129
1790600232.625951,-27.344,-41.016,242.676,-14.160
1790600232.629812,26.367,-43.945,301.270,-2.441
1790600232.633673,-37.109,-35.645,283.691,-35.156
1790600232.637535,-101.074,-38.574,268.066,-54.199
1790600232.641866,-45.410,-40.527,292.969,-31.250
1790600232.645728,43.457,-35.645,306.152,2.441
1790600232.649590,-4.395,-44.922,307.617,-13.672
1790600232.653451,-91.797,-44.922,340.332,-41.992
1790600232.657313,-67.383,-39.551,363.770,-35.156
1790600232.661175,19.043,-42.969,343.262,-3.906
1790600232.665036,15.625,-42.969,271.484,-4.883
1790600232.668898,-79.102,-41.504,286.621,-35.645
1790600232.672760,-83.496,-41.992,360.352,-41.016
1790600232.676622,0.488,-45.898,291.992,-20.996
1790600232.680483,25.879,-39.551,215.332,-14.160
1790600232.684345,-61.523,-28.320,232.910,-51.758
1790600232.688655,-102.051,-29.297,240.234,-73.730
1790600232.692517,-20.020,-20.020,248.535,-30.273
1790600232.696379,40.039,-33.203,266.602,8.301
1790600232.700241,-32.715,-55.664,276.367,-33.203
1790600232.704103,-87.402,-46.387,258.301,-64.941
1790600232.707965,-32.227,-37.109,198.730,-26.855
1790600232.711827,47.363,-38.086,165.039,4.883
1790600232.715689,11.719,-47.852,179.199,-33.203
1790600232.719551,-90.820,-59.570,182.617,-62.012
1790600232.723413,-73.242,-53.711,148.438,-31.250
1790600232.727275,27.344,-46.387,162.598,5.859
1790600232.731137,18.555,-42.969,226.074,-9.766
1790600232.735650,-92.285,-33.203,238.281,-66.406
1790600232.739512,-111.328,-34.668,174.805,-67.383
1790600232.743375,-26.855,-41.992,164.062,-36.621
1790600232.747237,21.484,-47.852,191.406,-19.531
1790600232.751099,-48.340,-41.504,193.848,-57.617
1790600232.754961,-89.844,-36.621,159.668,-66.406
1790600232.758824,-29.297,-47.852,172.852,-20.020
1790600232.762686,32.227,-56.641,261.719,-10.742
1790600232.766548,-19.043,-45.410,250.488,-34.180
1790600232.770411,-92.773,-39.551,224.121,-47.852
1790600232.774273,-54.688,-38.086,256.836,-45.410
1790600232.778135,36.621,-47.363,272.949,-15.137
1790600232.782638,22.461,-47.852,220.703,-9.766
1790600232.786500,-67.383,-35.645,211.426,-39.551
1790600232.790363,-67.871,-43.945,241.211,-29.297
1790600232.794225,21.973,-35.645,223.145,0.000
1790600232.798088,35.645,-23.926,174.805,-5.859
1790600232.801951,-55.176,-30.762,147.949,-45.410
1790600232.805813,-78.125,-18.066,117.676,-60.547
1790600232.809676,-8.301,-45.898,125.488,-29.297
1790600232.813539,40.039,-71.289,93.262,-2.930
1790600232.817401,-33.691,-43.945,75.684,-21.484
1790600232.821264,-98.633,-30.273,132.324,-48.340
1790600232.825127,-37.598,-20.996,124.512,-33.691
1790600232.829559,48.828,-17.090,76.172,-1.465
1790600232.833422,0.488,-16.602,86.426,-21.484
1790600232.837285,-70.312,-19.531,119.629,-54.688
1790600232.841148,-41.992,-31.250,114.258,-40.039
1790600232.845011,30.762,-38.086,91.309,3.906
1790600232.848874,11.230,-43.945,76.660,-1.465
1790600232.852737,-76.660,-39.062,100.586,-46.875
1790600232.856600,-79.590,-55.664,122.070,-41.016
1790600232.860463,-1.465,-78.125,153.809,-8.301
1790600232.864326,26.367,-39.062,212.402,-8.301
1790600232.868189,-59.082,-20.508,229.980,-44.434
1790600232.872051,-90.332,-29.785,135.742,-53.711
1790600232.876479,-13.184,-18.066,77.148,-26.367
1790600232.880342,52.246,-12.695,123.047,-2.930
1790600232.884206,-15.137,-24.414,131.348,-27.832
1790600232.888069,-96.191,-31.250,90.332,-51.758
1790600232.891932,-41.016,-36.133,86.426,-33.691
1790600232.895795,53.711,-49.805,112.793,2.930
1790600232.899658,6.836,-61.035,161.621,-12.695
1790600232.903522,-83.008,-38.574,179.688,-56.641
1790600232.907385,-61.523,-33.691,173.828,-36.621
1790600232.911248,23.438,-36.133,221.680,1.953
1790600232.915111,24.414,-30.273,221.191,0.488
1790600232.918974,-74.219,-25.879,176.270,-43.457
1790600232.923615,0.000,-30.273,133.301,-51.758
1790600232.927479,0.000,-44.434,166.992,-22.949
1790600232.931342,0.000,-41.504,192.383,-22.949
1790600232.935206,0.000,-33.691,163.574,-51.758
1790600232.939069,0.000,-37.598,135.254,-69.336
1790600232.942933,0.000,-45.410,136.230,-29.785
1790600232.946796,0.000,-43.457,108.398,3.906
1790600232.950660,0.000,-53.711,81.055,-22.949
1790600232.954524,0.000,-56.641,66.406,-47.852
1790600232.958387,0.000,-36.621,81.543,-26.855
1790600232.962251,0.000,-37.109,95.703,2.930
1790600232.966114,0.000,-44.434,64.941,9.766
1790600232.970475,-48.828,-44.922,46.875,-20.996
1790600232.974339,-76.172,-50.293,41.504,-35.645
1790600232.978203,8.301,-57.129,19.043,-6.348
1790600232.982066,11.719,-52.246,-10.742,-16.113
1790600232.985930,-92.285,-44.922,20.996,-60.059
1790600232.989794,-112.793,-52.734,22.949,-68.848
1790600232.993658,-29.785,-59.570,3.906,-32.227
1790600232.997522,10.742,-62.500,15.137,-12.207
1790600233.001386,-73.242,-83.984,79.590,-44.922
1790600233.005250,-129.883,-82.520,128.906,-52.246
1790600233.009113,-69.336,-56.152,111.328,-34.180
1790600233.012977,11.719,-66.406,110.840,-14.648
1790600233.017276,-40.527,-67.383,185.547,-25.879
1790600233.021140,-111.328,-55.664,188.477,-49.805
1790600233.025004,-75.195,-72.266,130.371,-37.109
1790600233.028868,1.465,-75.684,142.578,2.930
1790600233.032732,-17.578,-61.523,183.594,5.859
1790600233.036596,-110.352,-50.293,147.461,-33.691
1790600233.040460,-97.656,-49.805,81.055,-36.133
1790600233.044324,6.836,-61.523,126.465,13.184
1790600233.048188,29.297,-52.734,214.844,10.254
1790600233.052052,-71.289,-41.992,161.133,-43.945
1790600233.055916,-113.281,-41.504,103.027,-54.199
1790600233.059780,-25.391,-39.551,118.652,-14.648
1790600233.064049,37.109,-40.039,115.723,7.324
1790600233.067913,-38.574,-38.086,64.941,-18.066
1790600233.071777,-108.398,-36.621,23.438,-28.320
1790600233.075641,-48.340,-40.527,43.945,1.953
1790600233.079505,41.992,-55.176,34.180,25.879
1790600233.083370,-12.207,-45.410,-3.418,-16.113
1790600233.087234,-83.984,-23.926,-31.250,-42.480
1790600233.091098,-41.504,-25.391,1.953,-3.906
1790600233.094963,48.340,-34.180,51.758,31.250
1790600233.098827,16.113,-53.223,-16.113,7.812
1790600233.102691,-98.633,-58.105,-44.922,-50.293
1790600233.106555,-100.098,-59.570,-1.465,-62.012
1790600233.110802,-5.371,-55.664,-39.062,-13.184
1790600233.114667,30.762,-36.621,-142.578,14.648
1790600233.118531,-60.547,-38.086,-171.387,-33.691
1790600233.122396,-105.957,-39.062,-159.668,-67.871
1790600233.126260,-25.391,-54.688,-164.551,-26.367
1790600233.130125,33.691,-65.918,-169.434,15.137
1790600233.133989,-43.457,-50.781,-188.965,-13.672
1790600233.137853,-107.422,-41.504,-203.125,-38.574
1790600233.141718,-51.270,-43.945,-208.496,-10.254
1790600233.145582,33.203,-50.781,-228.516,25.879
1790600233.149447,-8.301,-53.223,-182.617,0.488
1790600233.153311,-92.285,-58.594,-125.977,-44.434
1790600233.157773,-67.383,-46.875,-146.973,-24.902
1790600233.161638,14.160,-35.156,-141.113,6.836
1790600233.165502,8.789,-28.320,-101.074,-11.719
1790600233.169367,-82.031,-28.809,-76.172,-55.176
1790600233.173232,-93.262,-29.297,-104.004,-57.129
1790600233.177096,-1.953,-25.879,-94.238,-24.902
1790600233.180961,47.363,-37.109,-61.523,-26.367
1790600233.184826,-46.875,-39.062,-53.223,-63.965
1790600233.188691,-100.586,-42.480,-110.352,-75.195
1790600233.192555,-20.996,-44.434,-147.461,-39.551
1790600233.196420,48.340,-42.969,-84.961,-6.836
1790600233.200285,-19.043,-45.898,-105.957,-40.527
1790600233.204724,-104.004,-29.785,-162.109,-71.777
1790600233.208589,-62.500,-45.410,-127.441,-44.922
1790600233.212454,34.668,-63.477,-75.684,3.906
1790600233.216319,0.000,-42.969,-112.305,-17.578
1790600233.220184,-104.004,-42.480,-150.879,-67.383
1790600233.224049,-98.633,-41.504,-140.625,-57.129
1790600233.227914,2.441,-36.133,-115.723,-10.742
1790600233.231779,20.020,-47.363,-128.906,-12.207
1790600233.235644,-92.285,-49.805,-150.879,-56.152
1790600233.239509,-117.676,-39.062,-125.977,-49.805
1790600233.243374,-7.812,-32.715,-109.863,-1.953
1790600233.247239,36.133,-43.945,-171.387,20.996
1790600233.251620,-57.129,-38.086,-203.613,-22.461
1790600233.255485,-112.305,-26.855,-184.082,-66.895
1790600233.259350,-37.598,-36.621,-153.320,-39.062
1790600233.263216,51.270,-40.039,-130.371,0.488
1790600233.267081,-11.719,-56.641,-138.672,-18.555
1790600233.270946,-102.539,-50.781,-111.328,-47.852
1790600233.274812,-65.918,-32.715,-52.246,-33.691
1790600233.278677,39.062,-47.852,-38.574,4.395
1790600233.282542,20.508,-35.156,-107.910,3.418
1790600233.286407,-89.355,-2.441,-59.570,-38.086
1790600233.290272,-80.566,-18.555,-5.859,-44.922
1790600233.294138,32.715,-32.227,-35.156,6.836
1790600233.298488,42.969,-22.461,-9.277,0.000
1790600233.302354,-71.777,-22.461,19.043,-71.289
1790600233.306219,-111.816,-23.438,6.836,-77.637
1790600233.310085,-36.133,-28.320,17.090,-37.109
1790600233.313950,28.809,-37.109,28.320,-12.695
1790600233.317816,-47.852,-47.852,27.832,-37.598
1790600233.321681,-104.004,-34.668,24.902,-65.430
1790600233.325547,-42.480,-30.273,27.344,-48.828
1790600233.329412,36.133,-32.715,46.875,-14.648
1790600233.333278,-6.836,-27.344,64.453,-38.574
1790600233.337143,-97.656,-31.738,50.293,-73.242
1790600233.341009,-83.496,-28.320,12.695,-45.410
1790600233.345321,10.254,-34.668,70.801,2.930
1790600233.349187,10.742,-40.527,119.141,2.441
1790600233.353052,-87.402,-31.738,66.895,-25.879
1790600233.356918,-92.285,-32.715,50.293,-29.785
1790600233.360784,11.230,-33.691,96.680,-5.371
1790600233.364650,38.574,-18.066,81.543,17.090
1790600233.368515,-69.824,-18.066,30.762,-24.414
1790600233.372381,-110.840,-25.391,23.438,-48.340
1790600233.376247,-29.785,-8.301,91.309,-25.391
1790600233.380112,36.133,-13.184,82.031,-11.719
1790600233.383978,-17.090,-23.438,13.184,-38.086
1790600233.387844,-86.914,-14.648,-13.184,-71.289
1790600233.392124,-50.781,-28.809,-6.348,-56.641
1790600233.395990,33.691,-31.738,-14.648,-15.137
1790600233.399856,-0.977,-26.367,-22.461,-31.738
1790600233.403722,-89.355,-35.156,-18.555,-75.195
1790600233.407588,-70.312,-1.953,-9.277,-51.270
1790600233.411454,32.227,20.996,3.418,-1.953
1790600233.415320,28.809,-1.465,-62.988,-17.090
1790600233.419186,-94.727,-9.277,-27.344,-63.477
1790600233.423052,-118.164,1.953,97.656,-68.359
1790600233.426917,-30.273,-2.441,76.660,-32.715
1790600233.430783,0.488,6.348,-0.977,-31.738
1790600233.434649,-107.422,27.832,-28.320,-106.445
1790600233.438931,-183.105,26.367,-74.707,-156.250
1790600233.442797,-134.277,23.926,-132.324,-150.879
1790600233.446663,-91.309,35.645,-132.812,-152.832
1790600233.450529,-188.477,41.504,-125.488,-199.219
1790600233.454395,-283.203,32.715,-212.402,-239.746
1790600233.458261,-273.438,37.598,-265.137,-264.160
1790600233.462127,-216.309,53.711,-255.859,-251.465
1790600233.465993,-273.926,42.480,-272.949,-288.574
1790600233.469859,-391.602,45.410,-275.391,-353.027
1790600233.473726,-389.160,59.082,-264.648,-342.285
1790600233.477592,-296.875,45.410,-185.059,-314.941
1790600233.481458,-283.203,36.621,-104.492,-328.125
1790600233.485703,-382.324,48.340,-91.309,-365.723
1790600233.489570,-387.695,43.457,-87.891,-351.074
1790600233.493436,-291.504,41.992,-42.480,-297.363
1790600233.497302,-257.812,37.109,-0.488,-285.156
1790600233.501168,-314.941,21.973,-40.527,-292.969
1790600233.505035,-347.656,21.973,-95.703,-294.922
1790600233.508901,-287.598,16.113,-97.168,-271.484
1790600233.512767,-180.664,5.859,-71.289,-203.125
1790600233.516634,-214.844,-13.672,-44.922,-205.078
1790600233.520500,-282.227,-16.113,-123.047,-227.539
1790600233.524366,-223.633,-6.836,-156.738,-180.176
1790600233.528232,-115.723,-21.973,-79.102,-123.047
1790600233.532668,-81.543,-31.250,-62.988,-103.027
1790600233.536535,-145.020,-16.113,-52.246,-119.629
1790600233.540401,-125.488,-18.066,-10.254,-104.980
1790600233.544268,-11.719,-13.184,23.926,-48.340
1790600233.548135,12.207,-6.836,39.062,-43.945
1790600233.552001,-63.965,-29.297,-45.410,-70.312
1790600233.555868,-80.566,-45.410,-137.695,-55.664
1790600233.559734,-2.930,-53.223,-254.395,-1.465
1790600233.563601,67.871,-37.598,-344.727,44.434
1790600233.567467,19.043,-51.758,-323.730,17.090
1790600233.571334,-38.086,-66.895,-342.773,-8.301
1790600233.575200,17.090,-62.500,-390.625,36.133
1790600233.579623,108.398,-69.824,-397.461,78.125
1790600233.583489,91.797,-45.410,-376.953,67.871
1790600233.587356,21.484,-55.664,-311.523,49.316
1790600233.591223,40.527,-72.266,-245.117,57.129
1790600233.595090,132.324,-56.152,-210.449,103.516
1790600233.598956,112.793,-49.805,-191.406,116.211
1790600233.602823,-5.859,-59.570,-134.277,67.871
1790600233.606690,-9.766,-60.547,-79.590,69.336
1790600233.610557,77.148,-67.871,65.918,107.910
1790600233.614424,120.605,-73.730,263.672,109.863
1790600233.618290,63.965,-54.199,268.066,73.242
1790600233.622157,27.832,-42.969,172.363,69.336
1790600233.626530,78.613,-45.898,114.746,94.727
1790600233.630397,125.488,-49.316,191.406,90.332
1790600233.634264,78.125,-49.316,318.848,41.016
1790600233.638131,18.555,-42.480,396.973,13.672
1790600233.641998,65.918,-33.691,379.395,56.152
1790600233.645865,146.484,-31.738,312.988,107.910
1790600233.649732,105.957,-35.156,363.281,78.613
1790600233.653599,31.250,-37.109,385.254,39.551
1790600233.657466,28.809,-36.621,337.402,52.246
1790600233.661333,115.723,-26.367,448.242,79.590
1790600233.665200,134.277,-19.531,567.871,85.938
1790600233.669067,32.715,-34.668,433.105,53.223
1790600233.673401,14.648,-53.223,345.703,36.133
1790600233.677268,98.145,-45.898,428.711,90.332
1790600233.681136,174.805,-20.020,416.016,128.906
1790600233.685003,104.492,3.418,418.945,72.754
1790600233.688870,21.973,-2.441,360.352,25.879
1790600233.692737,74.707,-6.836,268.066,46.387
1790600233.696604,146.973,3.418,186.523,73.242
1790600233.700472,107.910,12.207,-10.254,39.551
1790600233.704339,42.969,20.020,-239.258,9.277
1790600233.708206,83.496,17.578,-319.336,33.203
1790600233.712074,169.922,17.578,-383.789,73.730
1790600233.715941,145.996,15.137,-558.105,64.941
1790600233.720238,46.387,10.742,-656.250,23.438
1790600233.724106,45.898,12.207,-713.867,22.949
1790600233.727973,130.371,7.812,-887.695,61.035
1790600233.731841,139.160,5.859,-990.723,63.477
1790600233.735708,58.594,5.371,-993.652,20.508
1790600233.739576,25.391,-2.441,-997.070,22.461
1790600233.743443,97.656,-2.930,-998.047,58.105
1790600233.747310,149.902,-3.418,-997.070,72.266
1790600233.751178,75.195,0.000,-984.375,51.758
1790600233.755045,20.508,-2.930,-957.031,22.461
1790600233.758913,69.824,-10.254,-955.078,41.016
1790600233.762780,130.859,-7.812,-972.168,78.613
1790600233.767057,87.891,-17.578,-956.055,54.688
1790600233.770925,11.719,-11.719,-951.660,7.812
1790600233.774792,37.109,-9.766,-945.312,8.789
1790600233.778660,116.699,-15.137,-915.527,53.223
1790600233.782527,103.516,-18.066,-890.625,56.641
1790600233.786395,19.531,-23.926,-866.699,7.812
1790600233.790263,8.301,-10.254,-831.543,12.207
1790600233.794130,76.172,2.441,-748.047,58.594
1790600233.797998,94.238,3.906,-657.227,56.152
1790600233.801866,8.301,-14.160,-600.098,17.578
1790600233.805733,-29.785,-19.043,-525.879,-2.930
1790600233.809601,47.363,6.836,-387.207,16.602
1790600233.813850,115.723,17.090,-263.184,43.945
1790600233.817718,40.039,4.395,-202.637,17.090
1790600233.821585,-24.414,-1.465,-147.461,-1.953
1790600233.825453,26.367,-2.441,-79.590,11.719
1790600233.829321,93.750,3.906,-29.297,32.227
1790600233.833189,63.477,-12.207,3.906,25.879
1790600233.837057,-20.020,-21.484,94.238,-14.648
1790600233.840925,-6.836,-1.953,193.848,-16.602
1790600233.844792,69.336,6.836,208.984,17.578
1790600233.848660,64.453,-2.441,127.441,17.090
1790600233.852528,-25.391,-18.555,64.453,-17.578
1790600233.856395,-44.922,-29.785,44.922,-26.855
1790600233.860611,35.156,-1.465,73.730,4.883
1790600233.864479,55.664,-0.977,91.797,19.531
1790600233.868347,-29.297,-24.414,49.805,-18.555
1790600233.872215,-69.824,-20.508,2.441,-33.203
1790600233.876083,-0.977,-16.602,2.441,11.230
1790600233.879951,70.801,-17.090,7.812,31.738
1790600233.883819,4.883,-25.391,54.688,-17.090
1790600233.887687,-66.406,-23.438,130.859,-56.152
1790600233.891555,-17.090,-20.020,182.617,-29.297
1790600233.895422,66.895,-32.227,232.422,24.414
1790600233.899291,24.414,-28.320,253.418,-11.719
1790600233.903158,-77.637,-17.578,234.863,-69.336
1790600233.907586,-58.594,-33.691,194.336,-43.457
1790600233.911455,41.992,-26.855,187.500,4.883
1790600233.915323,47.852,-10.742,128.906,-4.395
1790600233.919191,-63.477,-30.273,90.332,-58.105
1790600233.923059,-76.660,-28.320,80.566,-51.270
1790600233.926927,20.020,-13.184,83.008,-3.906
1790600233.930796,50.781,-7.812,112.305,13.184
1790600233.934664,-31.738,-18.555,125.488,-33.203
1790600233.938532,-83.008,-31.738,90.332,-62.012
1790600233.942400,-18.066,-28.320,101.074,-25.879
1790600233.946268,61.035,-25.879,165.039,12.207
1790600233.950137,-6.836,-38.086,217.773,-15.137
1790600233.954523,-94.238,-42.969,234.863,-51.758
1790600233.958392,-42.480,-19.043,237.793,-33.691
1790600233.962260,51.270,-7.812,267.090,1.465
1790600233.966129,23.926,-18.066,305.664,-6.836
1790600233.969997,-75.684,-40.527,351.562,-46.387
1790600233.973866,-75.684,-44.434,369.141,-57.129
1790600233.977734,26.367,-21.484,412.598,-26.855
1790600233.981602,57.129,-29.297,409.180,-19.043
1790600233.985471,-43.945,-50.781,391.113,-59.082
1790600233.989339,-95.215,-52.734,411.133,-69.336
1790600233.993207,-27.832,-34.180,457.520,-32.227
1790600233.997076,34.668,-13.184,459.961,1.953
1790600234.001437,-38.086,-25.879,462.402,-38.574
1790600234.005306,-104.004,-34.180,504.883,-63.965
1790600234.009174,-46.387,-30.762,532.227,-33.691
1790600234.013043,36.133,-36.621,507.812,-0.488
1790600234.016912,7.324,-42.480,480.957,-6.836
1790600234.020780,-82.520,-36.133,484.863,-47.363
1790600234.024649,-74.219,-35.156,548.828,-44.434
1790600234.028518,27.832,-40.039,599.609,-13.184
1790600234.032386,29.785,-34.668,584.961,-24.902
1790600234.036255,-83.496,-35.645,617.676,-68.848
1790600234.040124,-99.121,-51.270,577.148,-75.195
1790600234.043992,-5.859,-31.738,526.367,-33.691
1790600234.048323,20.996,-30.273,514.648,-13.184
1790600234.052192,-74.219,-62.988,506.348,-58.105
1790600234.056061,-111.816,-56.641,479.004,-77.637
1790600234.059930,-29.785,-33.203,457.031,-30.762
1790600234.063798,34.180,-36.621,443.848,1.465
1790600234.067667,-43.457,-38.086,420.898,-29.785
1790600234.071536,-112.793,-37.109,422.363,-63.965
1790600234.075405,-58.105,-42.480,480.957,-51.758
1790600234.079274,29.297,-43.457,531.738,-25.879
1790600234.083143,-12.695,-46.875,529.297,-47.363
1790600234.087011,-94.727,-42.480,503.906,-69.336
1790600234.090880,-68.848,-53.223,461.914,-51.758
1790600234.095410,22.949,-51.270,489.258,-15.625
1790600234.099279,27.344,-27.832,502.930,-9.277
1790600234.103148,-70.801,-28.320,463.379,-48.340
1790600234.107018,-90.332,-41.992,441.895,-56.152
1790600234.110887,3.418,-44.922,449.219,-15.137
1790600234.114756,50.293,-30.273,431.641,3.418
1790600234.118625,-41.504,-34.180,408.203,-33.203
1790600234.122494,-98.145,-41.992,374.023,-55.664
1790600234.126363,-29.785,-39.062,411.133,-20.996
1790600234.130232,62.012,-27.344,414.062,21.973
1790600234.134102,23.438,-25.879,345.215,12.695
1790600234.137971,-45.898,-40.527,328.613,-8.301
1790600234.142232,-44.922,-44.922,369.629,-20.996
1790600234.146102,20.996,-38.574,373.047,-16.602
1790600234.149971,7.812,-46.387,325.195,-22.461
1790600234.153840,-85.938,-50.293,301.758,-56.641
1790600234.157710,-68.848,-44.434,289.551,-41.992
1790600234.161579,39.062,-44.434,271.484,13.184
1790600234.165448,55.664,-45.410,247.070,23.438
1790600234.169318,-56.641,-40.039,278.809,-20.996
1790600234.173187,-88.867,-33.203,301.270,-26.367
1790600234.177056,-1.953,-38.086,290.039,7.324
1790600234.180926,48.340,-42.969,236.816,21.484
1790600234.184795,-34.668,-36.621,241.699,-11.230
1790600234.189021,-90.332,-34.180,276.367,-31.250
1790600234.192890,-31.738,-42.480,230.469,-6.348
1790600234.196760,51.758,-41.016,198.730,18.066
1790600234.200629,5.371,-24.902,189.941,-9.277
1790600234.204499,-84.961,-20.508,168.457,-35.645
1790600234.208368,-46.387,-47.363,121.582,-23.438
1790600234.212238,53.711,-41.992,118.652,0.000
1790600234.216107,29.785,-17.090,145.508,-14.648
1790600234.219977,-82.031,-18.555,148.926,-50.781
1790600234.223846,-79.102,-20.020,94.727,-29.785
1790600234.227715,21.484,-26.855,69.824,5.859
1790600234.231585,30.762,-33.203,58.594,3.418
1790600234.235785,-63.477,-50.781,40.527,-41.016
1790600234.239655,-93.262,-44.434,47.852,-59.570
1790600234.243525,-11.719,-31.250,103.516,-22.461
1790600234.247394,66.406,-26.855,140.137,4.395
1790600234.251264,-12.695,-31.250,106.445,-19.043
1790600234.255134,-91.309,-37.109,48.340,-35.156
1790600234.259003,-30.762,-52.246,44.922,-7.324
1790600234.262873,51.758,-51.758,46.387,9.277
1790600234.266742,-3.418,-31.738,8.301,-14.160
1790600234.270612,-101.074,-26.855,-37.598,-38.574
1790600234.274482,-87.891,-26.367,-32.227,-37.109
1790600234.278351,12.695,-41.992,12.695,-17.578
1790600234.282740,16.113,-50.781,6.836,-14.160
1790600234.286610,-80.566,-31.250,6.348,-36.621
1790600234.290480,-86.914,-26.367,-13.672,-52.246
1790600234.294350,7.812,-41.016,-27.832,-23.438
1790600234.298220,42.969,-40.527,-51.270,-2.930
1790600234.302089,-50.293,-29.297,-80.566,-45.410
1790600234.305959,-96.680,-34.180,-48.828,-65.430
1790600234.309829,-40.039,-35.156,-14.648,-39.062
1790600234.313699,28.320,-39.551,-78.613,-11.230
1790600234.317569,-32.715,-55.664,-111.816,-40.039
1790600234.321439,-113.770,-52.734,-55.176,-63.477
1790600234.325309,-66.406,-41.016,-42.969,-43.457
1790600234.329692,29.297,-30.762,-42.969,-25.391
1790600234.333562,-0.488,-34.668,-33.691,-36.621
1790600234.337432,-104.492,-33.691,-27.344,-68.359
1790600234.341302,-90.332,-36.621,-40.039,-62.500
1790600234.345172,5.371,-50.781,-49.316,-19.043
1790600234.349042,14.648,-38.574,-67.871,-5.859
1790600234.352912,-82.520,-26.855,-74.219,-44.434
1790600234.356782,-101.562,-26.855,-94.238,-55.176
1790600234.360652,-7.324,-28.809,-87.402,-20.996
1790600234.364522,40.039,-28.809,-66.895,-0.488
1790600234.368392,-48.828,-34.180,-57.617,-32.227
1790600234.372262,-113.281,-45.410,-74.707,-49.316
1790600234.376655,-43.945,-41.016,-86.426,-16.602
1790600234.380525,33.203,-31.738,-58.594,2.930
1790600234.384396,-15.137,-45.410,-51.270,-25.391
1790600234.388266,-97.168,-41.504,-89.355,-61.523
1790600234.392136,-67.871,-34.180,-124.023,-48.340
1790600234.396007,20.996,-33.691,-135.742,-20.508
1790600234.399877,18.066,-36.133,-104.980,-40.527
1790600234.403747,-78.613,-33.691,-99.121,-71.777
1790600234.407617,-92.773,-26.367,-142.578,-55.664
1790600234.411488,9.766,-27.832,-76.660,-29.785
1790600234.415358,36.133,-30.762,-52.246,-22.461
1790600234.419228,-59.570,-38.574,-85.449,-44.922
1790600234.423546,-101.074,-41.016,-106.934,-57.129
1790600234.427417,-26.855,-33.203,-111.328,-36.133
1790600234.431287,38.086,-35.645,-159.180,-11.230
1790600234.435158,-43.457,-45.410,-234.375,-36.133
1790600234.439028,-99.121,-47.852,-264.648,-54.688
1790600234.442899,-23.926,-35.645,-279.297,-35.156
1790600234.446769,50.293,-41.016,-293.945,-16.113
1790600234.450639,-21.973,-46.875,-295.410,-28.809
1790600234.454510,-125.000,-29.785,-269.531,-54.199
1790600234.458380,-78.125,-29.297,-265.137,-43.945
1790600234.462251,22.461,-30.273,-296.875,-24.902
1790600234.466121,11.719,-22.949,-312.500,-27.832
1790600234.470424,-84.961,-19.531,-249.023,-44.922
1790600234.474294,-90.820,-20.508,-202.637,-47.363
1790600234.478165,9.766,-27.832,-214.844,-14.648
1790600234.482036,28.320,-33.203,-247.070,-10.742
1790600234.485906,-80.566,-34.668,-265.137,-49.805
1790600234.489777,-111.328,-34.668,-284.668,-62.988
1790600234.493648,-35.156,-40.527,-279.297,-45.898
1790600234.497518,27.832,-44.922,-244.629,-10.742
1790600234.501389,-23.926,-40.039,-155.762,-19.043
1790600234.505260,-74.707,-41.016,-121.582,-31.738
1790600234.509130,-42.969,-37.109,-159.668,-35.156
1790600234.513001,28.809,-34.668,-176.758,-31.250
1790600234.517256,-3.906,-35.645,-190.918,-36.133
1790600234.521127,-100.098,-40.527,-257.324,-59.082
1790600234.524998,-80.078,-41.992,-284.668,-49.316
1790600234.528868,30.762,-38.574,-238.770,-7.812
1790600234.532739,31.738,-41.992,-226.074,-7.324
1790600234.536610,-68.848,-40.527,-210.449,-25.391
1790600234.540481,-78.613,-43.945,-210.449,-19.531
1790600234.544352,10.742,-46.875,-187.988,-6.348
1790600234.548223,50.781,-28.809,-121.582,-2.930
1790600234.552093,-35.645,-36.621,-119.141,-24.414
1790600234.555964,-94.238,-53.223,-145.508,-26.855
1790600234.559835,-36.621,-41.504,-119.141,2.441
1790600234.564059,42.480,-29.297,-68.848,6.348
1790600234.567930,-9.766,-51.270,-42.480,-28.809
1790600234.571801,-92.285,-52.246,-52.734,-50.781
1790600234.575672,-62.012,-35.156,-31.250,-49.316
1790600234.579543,22.949,-38.574,-8.789,-6.836
1790600234.583414,-5.371,-39.551,-20.996,-6.836
1790600234.587285,-92.773,-42.480,-26.367,-52.246
1790600234.591156,-71.777,-60.059,-15.625,-46.875
1790600234.595026,23.438,-55.176,-9.766,-20.508
1790600234.598897,26.855,-39.551,-46.875,-20.996
1790600234.602768,-72.754,-48.340,-43.457,-60.547
1790600234.606639,-88.379,-43.945,-14.648,-55.176
1790600234.610824,8.789,-35.645,2.441,-5.371
1790600234.614695,47.852,-36.133,-26.855,-10.742
1790600234.618566,-69.336,-32.715,-57.129,-70.801
1790600234.622437,-128.906,-43.457,-64.453,-80.078
1790600234.626308,-50.781,-47.363,-145.508,-27.832
1790600234.630179,39.062,-37.598,-294.922,12.695
1790600234.634050,-4.883,-44.434,-322.266,-11.230
1790600234.637922,-88.379,-51.758,-239.258,-36.133
1790600234.641793,-52.246,-45.410,-215.332,-20.020
1790600234.645664,35.645,-32.227,-185.547,5.859
1790600234.649535,16.602,-38.574,-157.715,10.254
1790600234.653406,-77.148,-47.852,-148.438,-32.227
