timestamp,TP9,AF7,AF8,TP10
1789995812.447611,0.000,0.000,0.000,0.000
1789995812.451472,0.000,0.000,-0.488,0.000
1789995812.455333,-1.465,-2.441,-1.465,-1.953
1789995812.459193,2.930,3.906,0.977,2.930
1789995812.463054,-17.090,-24.414,-13.184,-20.508
1789995812.466915,-44.922,-73.242,-69.336,-69.336
1789995812.470775,-40.527,-70.801,-99.609,-70.801
1789995812.474636,-38.574,-68.848,-86.426,-36.621
1789995812.478497,-17.578,-79.102,-85.449,-35.645
1789995812.482357,7.812,-76.660,-94.727,-37.109
1789995812.486218,10.742,-74.707,-99.121,-22.461
1789995812.490078,-11.719,-79.102,-98.145,-19.043
1789995812.493096,-20.508,-83.008,-99.609,-15.625
1789995812.496886,9.766,-91.309,-94.727,-0.977
1789995812.500677,13.672,-90.332,-91.797,0.000
1789995812.504467,-8.301,-84.961,-99.609,-14.160
1789995812.508258,-2.930,-83.496,-100.586,-0.977
1789995812.512048,13.672,-86.914,-102.539,0.977
1789995812.515838,13.672,-100.098,-108.887,-8.301
1789995812.519629,16.113,-93.750,-108.398,-5.371
1789995812.523419,6.348,-79.590,-104.004,-3.906
1789995812.527210,0.977,-81.543,-98.633,2.441
1789995812.531000,15.137,-83.008,-92.285,11.719
1789995812.534791,15.137,-80.566,-90.820,15.137
1789995812.536156,1.465,-90.820,-91.309,7.812
1789995812.539845,15.625,-94.238,-89.844,6.348
1789995812.543535,25.391,-88.867,-94.238,8.301
1789995812.547224,11.230,-89.355,-95.215,9.766
1789995812.550913,-3.906,-98.145,-96.191,2.930
1789995812.554603,-3.906,-103.516,-102.539,-4.395
1789995812.558292,14.648,-97.656,-101.562,9.277
1789995812.561981,13.184,-95.215,-99.121,10.254
1789995812.565670,4.395,-92.285,-96.680,12.207
1789995812.569360,-2.441,-87.402,-94.727,11.719
1789995812.573049,8.789,-90.820,-96.191,1.953
1789995812.576739,8.301,-94.238,-99.121,5.371
1789995812.576681,5.371,-94.727,-96.680,2.441
1789995812.580266,16.113,-86.426,-92.285,-9.766
1789995812.583851,15.625,-81.543,-92.285,-4.883
1789995812.587436,13.184,-91.309,-93.262,-3.906
1789995812.591022,15.137,-83.496,-97.656,-11.230
1789995812.594607,2.441,-79.590,-90.332,-3.418
1789995812.598192,-5.859,-90.332,-86.426,0.977
1789995812.601778,-5.371,-83.984,-92.285,8.789
1789995812.605363,0.977,-81.055,-86.914,-3.906
1789995812.608948,-19.043,-86.914,-87.402,-26.367
1789995812.612533,-19.531,-86.914,-93.262,-28.320
1789995812.616118,-1.953,-91.797,-93.262,-24.414
1789995812.617365,-31.250,-83.008,-84.961,-32.715
1789995812.620901,-42.969,-68.848,-80.078,-42.480
1789995812.624438,-33.203,-62.500,-71.289,-33.691
1789995812.627974,-34.180,-63.965,-70.801,-43.457
1789995812.631511,-49.805,-58.594,-70.801,-61.035
1789995812.635047,-71.289,-54.199,-60.547,-68.359
1789995812.638584,-93.262,-46.875,-55.664,-85.938
1789995812.642120,-104.004,-34.180,-57.129,-109.375
1789995812.645657,-97.168,-35.156,-47.852,-120.605
1789995812.649193,-115.234,-28.809,-47.363,-138.672
1789995812.652730,-152.832,-27.344,-49.316,-159.668
1789995812.656266,-159.668,-26.855,-43.457,-154.297
1789995812.657525,-148.926,-27.344,-45.410,-152.832
1789995812.661024,-156.738,-35.645,-50.781,-153.320
1789995812.664522,-171.875,-26.855,-51.270,-152.344
1789995812.668021,-166.992,-16.113,-47.363,-158.691
1789995812.671519,-144.531,-15.625,-50.781,-158.203
1789995812.675018,-148.438,-30.273,-44.922,-154.785
1789995812.678516,-165.527,-34.180,-41.504,-165.039
1789995812.682015,-162.109,-27.832,-46.387,-158.691
1789995812.685513,-129.883,-30.273,-44.922,-129.883
1789995812.689012,-109.375,-38.086,-52.246,-111.816
1789995812.692511,-123.535,-49.805,-59.570,-104.004
1789995812.696009,-132.324,-61.523,-58.105,-107.422
1789995812.699293,-102.539,-63.965,-62.012,-98.145
1789995812.702789,-76.660,-60.059,-67.383,-89.355
1789995812.706284,-72.754,-70.801,-68.848,-71.289
1789995812.709780,-74.707,-75.684,-68.848,-52.246
1789995812.713275,-52.734,-70.801,-76.172,-52.246
1789995812.716771,-20.996,-83.496,-80.078,-40.039
1789995812.720266,-34.180,-96.680,-85.938,-29.297
1789995812.723762,-32.715,-86.426,-83.984,-36.133
1789995812.727257,-25.879,-83.984,-87.891,-32.227
1789995812.730753,-24.414,-95.703,-99.121,-19.531
1789995812.734249,-14.648,-98.145,-96.680,-4.883
1789995812.737744,-16.602,-97.168,-97.168,-7.812
1789995812.740939,-11.230,-95.215,-95.703,-4.883
1789995812.744431,4.395,-93.750,-93.262,4.883
1789995812.747923,3.418,-97.168,-96.680,4.395
1789995812.751415,-5.859,-103.027,-95.703,0.000
1789995812.754907,-18.066,-105.469,-100.098,-5.859
1789995812.758399,0.977,-109.863,-103.027,-0.488
1789995812.761891,18.555,-106.445,-99.121,4.883
1789995812.765383,22.461,-101.074,-99.609,10.254
1789995812.768875,11.719,-106.934,-104.004,12.207
1789995812.772367,2.930,-106.445,-104.980,13.184
1789995812.775859,17.090,-102.051,-102.539,18.066
1789995812.779351,7.324,-99.609,-100.586,15.137
1789995812.782568,5.371,-97.656,-97.168,5.859
1789995812.786057,20.508,-97.168,-93.750,11.719
1789995812.789547,34.180,-96.191,-94.238,24.414
1789995812.793036,30.273,-96.680,-96.191,26.367
1789995812.796525,13.184,-97.168,-94.238,27.832
1789995812.800014,15.137,-100.098,-90.332,19.531
1789995812.803503,33.203,-104.492,-93.262,17.090
1789995812.806992,28.809,-99.121,-100.586,19.531
1789995812.810482,14.648,-95.703,-105.469,12.695
1789995812.813971,9.277,-107.910,-107.910,9.766
1789995812.817460,6.836,-106.934,-100.586,7.324
1789995812.820949,21.484,-97.168,-94.238,7.812
1789995812.826027,28.320,-97.168,-90.332,10.742
1789995812.829531,2.441,-97.656,-86.426,14.648
1789995812.833035,4.883,-94.238,-87.402,18.066
1789995812.836539,24.414,-95.215,-87.891,22.949
1789995812.840042,21.484,-93.262,-90.332,29.297
1789995812.843546,13.672,-92.285,-91.797,10.254
1789995812.847050,-1.465,-99.121,-92.285,4.395
1789995812.850554,17.578,-103.027,-94.238,20.020
1789995812.854058,27.832,-101.074,-94.727,12.207
1789995812.857562,9.277,-99.609,-98.145,18.066
1789995812.861066,10.254,-93.262,-95.215,20.996
1789995812.864569,27.832,-92.285,-87.402,21.484
1789995812.869489,41.992,-93.750,-86.914,33.691
1789995812.873005,20.020,-94.238,-92.773,11.230
1789995812.876521,1.953,-92.285,-96.680,3.418
1789995812.880036,17.090,-94.238,-90.820,15.625
1789995812.883552,28.809,-93.262,-85.938,7.812
1789995812.887068,25.391,-93.750,-89.844,1.953
1789995812.890583,17.090,-98.633,-87.891,2.930
1789995812.894099,23.926,-95.215,-84.473,14.648
1789995812.897614,37.109,-87.402,-87.402,15.137
1789995812.901130,42.969,-87.891,-84.473,12.207
1789995812.904646,9.766,-88.379,-84.473,12.695
1789995812.908161,-2.930,-85.938,-85.449,4.395
1789995812.914290,22.461,-79.102,-83.984,12.695
1789995812.917825,19.531,-79.102,-88.867,6.836
1789995812.921361,3.906,-86.914,-90.332,-3.906
1789995812.924896,-11.230,-83.496,-89.844,-8.301
1789995812.928432,-21.484,-88.379,-94.238,-16.602
1789995812.931967,-17.578,-96.680,-93.750,-10.254
1789995812.935503,-15.137,-90.332,-93.750,-7.324
1789995812.939038,-25.391,-81.543,-88.867,-5.371
1789995812.942573,-24.414,-85.938,-82.031,-6.836
1789995812.946109,-5.859,-87.402,-82.031,-17.578
1789995812.949644,1.953,-76.660,-83.496,-18.555
1789995812.953180,-18.555,-72.754,-85.449,-22.461
1789995812.958605,-20.508,-79.590,-83.984,-30.273
1789995812.962154,1.465,-83.008,-88.867,-25.391
1789995812.965702,10.742,-78.613,-93.750,-5.371
1789995812.969251,-17.090,-83.496,-86.426,-8.789
1789995812.972799,-54.688,-89.844,-80.078,-40.527
1789995812.976348,-44.922,-88.379,-81.055,-32.227
1789995812.979896,-24.414,-91.797,-78.125,-13.184
1789995812.983445,-12.695,-93.262,-72.754,-13.184
1789995812.986994,-20.996,-94.727,-70.801,-8.301
1789995812.990542,-41.992,-99.609,-76.660,-15.625
1789995812.994091,-35.156,-94.727,-84.473,-26.855
1789995812.997639,-32.715,-89.355,-85.938,-26.855
1789995813.002652,-44.434,-90.820,-85.938,-36.621
1789995813.006210,-40.039,-92.773,-78.613,-33.691
1789995813.009768,-25.879,-91.797,-80.566,-30.273
1789995813.013326,-32.715,-91.309,-79.590,-35.156
1789995813.016884,-43.945,-88.867,-74.219,-45.410
1789995813.020442,-41.992,-84.473,-76.660,-44.434
1789995813.023999,-39.062,-83.496,-79.590,-39.062
1789995813.027557,-29.785,-83.984,-79.102,-23.438
1789995813.031115,-38.574,-84.473,-80.566,-31.738
1789995813.034673,-53.711,-87.891,-83.496,-46.875
1789995813.038231,-36.621,-85.449,-80.566,-32.715
1789995813.041789,-34.180,-85.449,-82.031,-35.156
1789995813.048383,-45.410,-81.055,-88.379,-41.016
1789995813.051959,-48.828,-76.660,-97.656,-37.109
1789995813.055535,-24.414,-79.102,-87.891,-30.762
1789995813.059111,-11.719,-74.707,-82.520,-40.527
1789995813.062687,-31.250,-72.754,-84.473,-45.898
1789995813.066263,-39.062,-79.590,-82.031,-53.223
1789995813.069839,-36.621,-76.660,-79.590,-47.852
1789995813.073415,-15.625,-63.477,-74.219,-28.809
1789995813.076991,-15.625,-62.988,-78.125,-32.715
1789995813.080567,-38.086,-70.801,-83.496,-29.785
1789995813.084143,-40.039,-76.660,-83.984,-25.391
1789995813.087719,-31.738,-80.566,-87.402,-28.809
1789995813.094064,-29.785,-79.102,-84.961,-32.227
1789995813.097656,-31.250,-76.660,-76.660,-36.133
1789995813.101247,-51.758,-77.148,-68.848,-29.785
1789995813.104839,-36.133,-81.055,-70.312,-15.625
1789995813.108430,-27.832,-77.148,-74.219,-17.578
1789995813.112021,-43.457,-71.777,-69.336,-26.367
1789995813.115613,-40.527,-74.219,-67.383,-28.809
1789995813.119204,-41.504,-73.242,-66.895,-24.902
1789995813.122796,-36.621,-72.754,-71.777,-15.625
1789995813.126387,-34.668,-74.707,-83.008,-25.391
1789995813.129978,-35.156,-68.848,-81.055,-29.297
1789995813.133570,-41.504,-68.848,-78.125,-25.879
1789995813.139729,-23.926,-78.125,-83.008,-34.668
1789995813.143333,-5.371,-71.777,-74.219,-31.250
1789995813.146938,-8.789,-62.988,-69.336,-27.344
1789995813.150543,-23.926,-62.500,-69.824,-30.762
1789995813.154148,-25.391,-63.965,-72.754,-41.016
1789995813.157753,0.488,-62.988,-72.266,-48.340
1789995813.161357,-9.766,-58.594,-78.125,-38.574
1789995813.164962,-38.086,-66.895,-87.891,-26.855
1789995813.168567,-25.391,-69.336,-85.938,-21.484
1789995813.172172,-25.391,-64.941,-78.613,-35.156
1789995813.175776,-38.086,-67.871,-73.242,-40.039
1789995813.179381,-47.852,-64.941,-76.660,-36.133
1789995813.185330,-55.176,-64.453,-78.613,-31.738
1789995813.188946,-41.504,-69.336,-79.590,-31.738
1789995813.192563,-30.762,-71.777,-79.102,-34.668
1789995813.196179,-32.227,-79.102,-77.637,-34.180
1789995813.199795,-57.129,-84.961,-86.426,-40.039
1789995813.203412,-49.316,-81.055,-89.355,-28.809
1789995813.207028,-25.391,-73.730,-81.055,-14.160
1789995813.210644,-22.461,-70.312,-72.754,-12.695
1789995813.214260,-41.992,-75.684,-83.008,-40.527
1789995813.217877,-41.016,-80.078,-90.332,-56.641
1789995813.221493,-27.344,-75.684,-83.984,-34.668
1789995813.225109,-33.691,-74.707,-82.520,-43.457
1789995813.230916,-41.992,-89.355,-85.449,-56.152
1789995813.234542,-20.996,-88.867,-85.938,-26.367
1789995813.238169,-21.973,-75.684,-95.703,-28.320
1789995813.241795,-62.988,-74.219,-99.121,-67.383
1789995813.245422,-63.477,-73.242,-99.609,-59.082
1789995813.249048,-35.645,-69.336,-99.609,-47.363
1789995813.252674,-26.855,-67.383,-93.750,-52.246
1789995813.256301,-28.809,-68.848,-93.262,-40.527
1789995813.259927,-33.691,-61.035,-85.449,-34.668
1789995813.263554,-45.410,-59.570,-82.031,-42.480
1789995813.267180,-57.617,-67.383,-87.402,-55.176
1789995813.270806,-49.805,-65.430,-84.961,-39.551
1789995813.276460,-40.039,-66.895,-79.590,-24.902
1789995813.280096,-49.316,-72.266,-86.426,-39.551
1789995813.283731,-47.363,-74.219,-88.379,-44.434
1789995813.287366,-37.109,-67.871,-83.984,-41.992
1789995813.291001,-32.715,-71.289,-87.402,-44.922
1789995813.294637,-43.457,-73.730,-84.473,-49.316
1789995813.298272,-41.016,-75.195,-83.984,-42.480
1789995813.301907,-37.598,-76.660,-86.426,-24.414
1789995813.305543,-45.410,-71.289,-88.379,-31.738
1789995813.309178,-44.922,-77.637,-89.355,-32.715
1789995813.312813,-38.574,-77.637,-84.473,-32.227
1789995813.316448,-30.273,-68.848,-82.031,-35.645
1789995813.322124,-20.020,-70.801,-77.148,-31.250
1789995813.325768,-30.762,-74.707,-76.172,-36.133
1789995813.329412,-33.691,-70.801,-83.984,-46.387
1789995813.333056,-21.973,-62.988,-92.285,-46.387
1789995813.336700,-12.207,-60.547,-91.797,-41.016
1789995813.340343,-17.090,-67.383,-90.332,-32.715
1789995813.343987,-39.551,-68.848,-89.844,-30.762
1789995813.347631,-21.973,-70.312,-85.449,-35.645
1789995813.351275,0.000,-68.359,-78.613,-26.367
1789995813.354919,-16.602,-65.918,-85.449,-26.855
1789995813.358562,-26.367,-69.824,-85.449,-17.090
1789995813.362206,-24.902,-71.777,-83.008,-26.855
1789995813.368993,-33.691,-70.312,-88.379,-45.410
1789995813.372649,-30.273,-76.172,-83.496,-27.832
1789995813.376305,-33.691,-84.961,-76.660,-19.043
1789995813.379961,-24.902,-80.078,-82.031,-25.879
1789995813.383618,-32.715,-75.684,-89.844,-31.250
1789995813.387274,-51.758,-80.566,-83.984,-23.926
1789995813.390930,-31.250,-79.102,-86.426,-18.555
1789995813.394587,-30.762,-79.102,-89.844,-22.949
1789995813.398243,-30.762,-91.309,-86.426,-18.555
1789995813.401899,-27.344,-78.613,-82.031,-10.254
1789995813.405555,-37.598,-80.078,-87.891,-25.879
1789995813.409212,-12.695,-102.051,-80.566,-7.324
1789995813.415855,3.418,-93.750,-80.566,1.465
1789995813.419523,-48.828,-64.941,-107.910,-74.707
1789995813.423190,-83.984,-63.477,-112.793,-98.145
1789995813.426858,-83.496,-79.102,-97.656,-59.570
1789995813.430525,-94.238,-72.754,-95.215,-69.336
1789995813.434193,-92.773,-75.195,-91.797,-88.379
1789995813.437860,-100.586,-78.613,-88.867,-99.609
1789995813.441528,-133.301,-73.730,-102.539,-141.113
1789995813.445196,-121.582,-72.754,-104.980,-135.254
1789995813.448863,-90.820,-78.613,-97.656,-114.258
1789995813.452531,-104.492,-86.426,-90.332,-124.023
1789995813.456198,-116.699,-79.102,-85.938,-103.027
1789995813.462511,-101.562,-66.895,-83.984,-91.309
1789995813.466188,-96.191,-69.336,-91.797,-106.934
1789995813.469866,-90.332,-73.730,-95.215,-98.145
1789995813.473543,-75.684,-70.801,-85.938,-80.566
1789995813.477220,-67.871,-68.359,-87.402,-80.078
1789995813.480897,-54.199,-66.406,-93.262,-75.195
1789995813.484574,-50.293,-73.730,-95.215,-67.871
1789995813.488251,-46.875,-77.148,-90.820,-65.918
1789995813.491929,-50.293,-71.777,-83.496,-48.828
1789995813.495606,-47.363,-68.848,-83.984,-42.480
1789995813.499283,-34.180,-68.848,-88.379,-56.152
1789995813.502960,-53.223,-74.707,-94.727,-65.918
1789995813.509036,-58.594,-78.613,-97.168,-63.965
1789995813.512722,-62.012,-78.125,-100.098,-58.105
1789995813.516407,-58.105,-70.801,-100.586,-61.523
1789995813.520092,-45.898,-70.801,-96.191,-62.988
1789995813.523778,-45.410,-79.590,-105.469,-58.594
1789995813.527463,-57.129,-83.496,-104.004,-51.758
1789995813.531149,-42.969,-82.520,-100.098,-54.199
1789995813.534834,-37.598,-84.961,-99.609,-50.781
1789995813.538520,-49.805,-84.473,-92.285,-44.434
1789995813.542206,-55.664,-74.219,-84.961,-48.340
1789995813.545891,-47.363,-75.195,-86.426,-43.945
1789995813.549577,-38.086,-85.449,-93.750,-46.387
1789995813.555479,-39.062,-82.031,-95.703,-42.969
1789995813.559171,-26.855,-65.430,-92.773,-34.668
1789995813.562864,-42.969,-69.336,-93.262,-34.180
1789995813.566557,-44.922,-80.566,-92.773,-38.086
1789995813.570250,-23.438,-77.637,-87.891,-35.645
1789995813.573943,-28.809,-73.730,-82.520,-29.297
1789995813.577636,-44.434,-86.426,-85.449,-39.062
1789995813.581329,-54.688,-87.891,-97.656,-45.898
1789995813.585022,-36.621,-80.566,-99.121,-40.527
1789995813.588715,-34.668,-76.660,-89.844,-36.621
1789995813.592407,-58.105,-73.730,-83.496,-33.691
1789995813.596100,-36.133,-75.195,-80.566,-36.133
1789995813.601852,-21.484,-75.684,-77.637,-38.086
1789995813.605552,-39.551,-74.219,-79.590,-32.715
1789995813.609251,-36.133,-77.637,-88.867,-29.297
1789995813.612951,-25.879,-82.031,-87.891,-35.156
1789995813.616650,-34.668,-85.449,-89.355,-37.109
1789995813.620350,-28.809,-84.473,-88.867,-44.434
1789995813.624049,-25.879,-79.590,-85.938,-40.527
1789995813.627748,-36.621,-76.660,-86.914,-24.902
1789995813.631448,-26.367,-69.336,-81.543,-31.738
1789995813.635148,-20.508,-72.754,-75.195,-36.621
1789995813.638847,-23.926,-76.660,-86.426,-40.039
1789995813.642546,-19.043,-61.035,-83.984,-32.227
1789995813.648117,-25.391,-57.617,-77.637,-35.645
1789995813.651823,-35.156,-66.895,-85.449,-48.340
1789995813.655528,-29.785,-67.871,-88.379,-50.293
1789995813.659233,-10.254,-65.918,-84.473,-32.227
1789995813.662938,-13.184,-68.359,-76.660,-20.996
1789995813.666644,-38.574,-68.848,-78.613,-34.668
1789995813.670349,-50.781,-66.406,-84.961,-43.457
1789995813.674054,-32.715,-67.871,-83.008,-31.738
1789995813.677759,-22.461,-73.730,-85.449,-42.969
1789995813.681465,-33.691,-72.266,-88.379,-61.523
1789995813.685170,-30.273,-71.289,-85.938,-43.457
1789995813.688875,-6.836,-72.266,-84.473,-43.945
1789995813.694323,-22.949,-68.848,-93.262,-56.641
1789995813.698034,-47.363,-69.336,-92.773,-40.527
1789995813.701744,-41.016,-66.895,-81.055,-38.086
1789995813.705455,-49.316,-64.453,-75.684,-31.738
1789995813.709165,-46.875,-69.336,-73.242,-29.785
1789995813.712876,-44.434,-75.195,-71.289,-41.992
1789995813.716586,-48.828,-77.637,-74.707,-47.852
1789995813.720296,-49.316,-73.242,-80.566,-38.086
1789995813.724007,-38.574,-73.242,-77.148,-18.555
1789995813.727717,-35.156,-70.801,-81.543,-22.949
1789995813.731428,-39.062,-68.359,-86.426,-32.715
1789995813.735138,-40.039,-76.660,-83.008,-49.316
1789995813.741498,-38.086,-70.312,-77.637,-33.691
1789995813.745216,-35.645,-68.848,-79.102,-24.414
1789995813.748934,-50.293,-86.426,-85.449,-38.574
1789995813.752652,-46.875,-86.426,-83.008,-37.598
1789995813.756370,-30.762,-75.684,-82.031,-35.156
1789995813.760088,-31.738,-71.289,-84.961,-40.039
1789995813.763806,-26.367,-65.430,-86.426,-35.156
1789995813.767524,-40.527,-72.266,-90.332,-42.969
1789995813.771242,-52.246,-78.613,-89.355,-53.223
1789995813.774961,-35.645,-69.336,-83.984,-27.832
1789995813.778679,-47.363,-66.895,-83.496,-38.086
1789995813.782397,-55.176,-69.336,-90.820,-54.688
1789995813.788518,-37.598,-64.941,-85.938,-44.434
1789995813.792243,-44.922,-62.500,-86.426,-52.734
1789995813.795968,-61.523,-59.570,-89.355,-68.359
1789995813.799693,-60.059,-57.129,-83.496,-68.848
1789995813.803417,-62.500,-60.547,-76.660,-69.824
1789995813.807142,-58.105,-53.711,-63.477,-63.477
1789995813.810867,-75.195,-52.734,-59.082,-74.219
1789995813.814592,-95.703,-64.453,-72.754,-113.770
1789995813.818316,-94.238,-61.523,-68.848,-111.328
1789995813.822041,-97.168,-46.875,-53.223,-87.891
1789995813.825766,-108.398,-40.039,-44.434,-108.887
1789995813.829491,-134.766,-37.109,-43.945,-143.555
1789995813.835485,-171.875,-28.320,-42.969,-173.340
1789995813.839216,-188.477,-22.461,-21.484,-175.293
1789995813.842947,-196.289,-12.207,-13.184,-174.805
1789995813.846678,-217.773,-9.766,-20.020,-203.613
1789995813.850408,-238.281,-12.695,-14.648,-227.539
1789995813.854139,-236.816,0.488,0.977,-242.188
1789995813.857870,-234.375,11.719,-3.906,-236.816
1789995813.861601,-238.281,14.648,-12.207,-242.676
1789995813.865332,-221.191,7.812,6.348,-231.934
1789995813.869062,-220.215,4.395,8.301,-222.168
1789995813.872793,-235.352,5.371,18.066,-220.703
1789995813.876524,-219.727,3.418,19.531,-194.336
1789995813.882333,-206.055,-1.465,1.953,-196.777
1789995813.886070,-198.242,-14.648,-15.137,-205.078
1789995813.889806,-166.992,-37.109,-25.879,-182.617
1789995813.893542,-142.578,-23.926,-26.855,-150.391
1789995813.897278,-146.484,-23.438,-25.879,-142.090
1789995813.901015,-139.648,-39.062,-28.809,-148.438
1789995813.904751,-127.441,-37.598,-41.992,-132.812
1789995813.908487,-132.812,-50.293,-49.805,-102.539
1789995813.912223,-125.000,-72.754,-54.688,-92.285
1789995813.915960,-113.281,-78.125,-51.270,-92.773
1789995813.919696,-95.215,-86.426,-62.500,-76.172
1789995813.923432,-70.801,-93.750,-88.379,-65.430
1789995813.929027,-48.340,-77.637,-80.078,-50.293
1789995813.932768,-52.246,-78.613,-80.566,-46.387
1789995813.936509,-47.363,-82.031,-93.750,-31.250
1789995813.940250,-16.602,-79.102,-86.914,-4.883
1789995813.943991,-22.461,-98.145,-93.750,-18.555
1789995813.947731,-36.621,-107.422,-103.516,-34.180
1789995813.951473,-20.508,-95.215,-101.074,-9.766
1789995813.955214,-2.930,-97.168,-101.562,17.578
1789995813.958954,0.488,-91.797,-107.910,14.160
1789995813.962695,-1.465,-92.773,-104.492,11.230
1789995813.966436,-8.789,-108.398,-108.887,8.301
1789995813.970177,9.277,-108.887,-115.234,10.254
1789995813.975649,31.250,-105.957,0.000,17.090
1789995813.979394,24.414,-108.887,0.000,13.184
1789995813.983140,21.484,-106.934,0.000,17.578
1789995813.986885,26.855,-97.656,0.000,29.297
1789995813.990630,26.367,-96.680,0.000,35.645
1789995813.994375,17.090,-87.891,0.000,14.648
1789995813.998120,12.695,-78.125,0.000,7.812
1789995814.001865,15.625,-89.355,0.000,27.832
1789995814.005611,20.996,-87.891,0.000,28.809
1789995814.009356,30.762,-84.473,0.000,23.926
1789995814.013101,25.391,-87.402,0.000,18.066
1789995814.016846,22.949,-95.215,0.000,12.695
1789995814.022318,40.039,-95.703,-104.492,37.109
1789995814.026068,41.992,-86.426,-98.145,45.410
1789995814.029817,22.461,-88.867,-106.445,18.066
1789995814.033566,6.836,-99.609,-116.699,13.184
1789995814.037316,9.277,-100.098,-114.746,8.789
1789995814.041065,12.207,-100.098,-111.816,11.230
1789995814.044814,8.301,-101.562,-111.328,21.973
1789995814.048563,-2.930,-93.262,-112.793,0.000
1789995814.052313,6.348,-89.844,-117.188,-9.277
1789995814.056062,21.973,-89.355,-109.863,17.090
1789995814.059811,6.836,-88.867,-111.816,15.137
1789995814.063561,6.348,-92.285,-115.723,6.348
1789995814.068860,0.000,-96.191,-110.352,2.441
1789995814.072613,0.000,-88.867,-107.422,-3.906
1789995814.076366,0.000,-80.566,-109.375,7.324
1789995814.080119,0.000,-89.844,-111.816,-3.418
1789995814.083872,0.000,-96.680,-110.840,-15.137
1789995814.087625,0.000,-97.656,-110.352,-2.930
1789995814.091377,0.000,-88.379,-112.305,6.836
1789995814.095130,0.000,-86.914,-118.652,-10.254
1789995814.098883,0.000,-116.211,-122.559,-25.391
1789995814.102636,0.000,-103.027,-111.816,-6.836
1789995814.106389,0.000,-74.219,-101.562,6.836
1789995814.110142,0.000,-80.566,-108.398,-12.695
1789995814.116136,-26.855,-85.449,-112.305,-31.250
1789995814.119894,-22.461,-86.914,-107.910,-23.438
1789995814.123652,5.371,-93.262,-100.098,-4.395
1789995814.127410,-5.371,-83.984,-89.844,-13.672
1789995814.131168,-18.066,-74.707,-93.750,-21.973
1789995814.134926,-16.602,-80.566,-104.004,-20.508
1789995814.138684,-11.719,-75.684,-96.680,-10.742
1789995814.142442,-5.859,-92.285,-84.473,0.000
1789995814.146199,-14.648,-100.098,-86.426,-13.184
1789995814.149957,-15.137,-74.707,-85.938,-12.695
1789995814.153715,4.883,-71.777,-80.566,-7.812
1789995814.157473,15.137,-78.613,-79.102,-3.906
1789995814.163324,-6.836,-76.172,-80.078,-13.184
1789995814.167087,-18.555,-73.730,-85.449,-25.879
1789995814.170849,-15.625,-72.266,-88.379,-19.043
1789995814.174612,-19.531,-75.195,-90.332,-14.160
1789995814.178375,-13.184,-76.172,-89.355,-12.695
1789995814.182137,-16.602,-86.914,-85.938,-32.227
1789995814.185899,-30.273,-85.938,-85.449,-34.668
1789995814.189662,-20.020,-68.848,-87.402,-14.160
1789995814.193424,-17.090,-66.406,-88.867,-23.926
1789995814.197187,-17.090,-69.824,-82.031,-25.879
1789995814.200950,-18.555,-75.195,-83.496,-26.855
1789995814.204712,-11.230,-73.730,-89.844,-7.812
1789995814.210384,1.953,-66.406,-82.520,5.371
1789995814.214151,-26.855,-69.824,-83.008,-14.160
1789995814.217917,-35.156,-73.730,-89.844,-27.832
1789995814.221684,-19.043,-71.289,-94.238,-28.320
1789995814.225451,-38.086,-78.613,-88.867,-30.273
1789995814.229217,-62.988,-84.473,-93.750,-44.434
1789995814.232984,-38.574,-69.336,-102.539,-28.320
1789995814.236751,-9.766,-58.105,-87.402,-1.465
1789995814.240517,-14.160,-56.152,-73.242,-12.207
1789995814.244284,-50.781,-69.824,-76.660,-38.086
1789995814.248050,-73.730,-78.613,-84.961,-51.758
1789995814.251817,-58.105,-70.312,-87.891,-62.988
1789995814.257406,0.000,-75.195,-84.961,-52.246
1789995814.261176,0.000,-83.496,-82.031,-43.945
1789995814.264947,0.000,-82.520,-79.590,-58.594
1789995814.268717,0.000,-81.055,-81.055,-58.594
1789995814.272487,0.000,-77.637,-77.637,-43.945
1789995814.276258,0.000,-75.684,-79.102,-42.969
1789995814.280028,0.000,-77.637,-89.844,-43.457
1789995814.283799,0.000,-83.008,-73.242,-42.969
1789995814.287569,0.000,-84.473,-63.477,-37.598
1789995814.291339,0.000,-83.984,-89.355,-27.832
1789995814.295110,0.000,-85.449,-87.891,-35.156
1789995814.298880,0.000,-78.125,-82.031,-50.293
1789995814.304228,-41.016,-72.266,-81.543,-55.176
1789995814.308001,-30.762,-70.801,-88.379,-40.039
1789995814.311775,-38.574,-78.613,-94.238,-40.039
1789995814.315548,-63.965,-89.844,-87.402,-54.199
1789995814.319322,-60.547,-86.426,-79.102,-51.758
1789995814.323096,-56.641,-90.332,-83.984,-48.340
1789995814.326869,-53.223,-86.426,-88.379,-49.805
1789995814.330643,-42.480,-78.125,-82.520,-39.062
1789995814.334416,-37.109,-77.148,-80.566,-36.133
1789995814.338190,-21.484,-62.012,-80.566,-31.250
1789995814.341964,-13.184,-61.035,-80.566,-14.648
1789995814.345737,-31.738,-79.102,-81.543,-30.273
1789995814.350971,-28.320,-73.730,-79.102,-34.668
1789995814.354747,-16.602,-70.801,-76.172,-22.949
1789995814.358524,-23.926,-70.801,-69.824,-14.160
1789995814.362300,-28.320,-64.941,-64.941,-20.020
1789995814.366077,-39.062,-71.289,-77.148,-39.551
1789995814.369853,-46.387,-81.543,-87.891,-36.621
1789995814.373630,-41.016,-80.078,-89.355,-22.461
1789995814.377406,-38.086,-72.754,-87.891,-24.414
1789995814.381183,-46.387,-66.895,-79.102,-36.133
1789995814.384959,-37.598,-59.082,-75.195,-41.504
1789995814.388736,-18.555,-68.359,-81.543,-37.109
1789995814.392512,-20.996,-74.707,-87.402,-45.898
1789995814.397584,-34.668,-78.613,-79.590,-64.941
1789995814.401363,-44.922,-86.426,-80.078,-74.219
1789995814.405142,-48.340,-81.055,-102.051,-53.223
1789995814.408921,-39.551,-80.078,-94.727,-38.574
1789995814.412700,-40.527,-79.102,-80.566,-47.363
1789995814.416479,-55.664,-75.195,-81.543,-52.734
1789995814.420258,-49.805,-74.219,-82.031,-43.945
1789995814.424037,-34.668,-75.684,-81.543,-30.762
1789995814.427816,-45.898,-77.148,-81.543,-43.945
1789995814.431595,-60.547,-75.684,-76.172,-57.617
1789995814.435374,-51.758,-81.055,-76.660,-54.199
1789995814.439153,-44.434,-81.543,-79.590,-39.551
1789995814.444206,-43.457,-77.637,-81.055,-41.504
1789995814.447988,-46.875,-78.613,-80.566,-54.688
1789995814.451769,-46.387,-82.520,-82.031,-49.805
1789995814.455550,-41.504,-85.449,-85.938,-40.527
1789995814.459332,-36.621,-83.984,-84.473,-38.574
1789995814.463113,-45.410,-91.797,-83.496,-46.875
1789995814.466895,-55.176,-94.727,-85.449,-50.293
1789995814.470676,-46.387,-78.613,-78.613,-42.969
1789995814.474458,-40.527,-73.242,-76.172,-38.574
1789995814.478239,-46.387,-76.660,-60.547,-47.363
1789995814.482020,-51.758,-77.637,-64.941,-62.500
1789995814.485802,-56.641,-84.961,-101.562,-62.500
1789995814.491550,-46.387,-88.867,-95.703,-35.645
1789995814.495335,-50.293,-86.426,-90.332,-45.898
1789995814.499120,-57.617,-76.660,-90.332,-62.012
1789995814.502905,-45.410,-73.730,-79.590,-42.480
1789995814.506690,-42.969,-83.008,-81.543,-34.180
1789995814.510475,-49.316,-80.566,-85.938,-52.734
1789995814.514260,-61.523,-71.289,-81.543,-55.176
1789995814.518045,-83.984,-80.078,-81.543,-62.012
1789995814.521831,-68.848,-86.426,-87.402,-64.941
1789995814.525616,-59.570,-82.031,-90.332,-54.199
1789995814.529401,-89.355,-83.984,-96.680,-68.359
1789995814.533186,-72.754,-74.219,-88.867,-60.547
1789995814.538781,0.000,-67.383,-73.242,-56.152
1789995814.542569,0.000,-65.918,-76.172,-63.477
1789995814.546357,0.000,-74.219,-88.379,-78.613
1789995814.550146,0.000,-80.566,-92.773,-90.332
1789995814.553934,0.000,-74.219,-84.473,-75.684
1789995814.557723,0.000,-78.125,-78.613,-49.805
1789995814.561511,0.000,-89.355,-74.219,-34.180
1789995814.565299,0.000,-70.312,-77.148,-50.293
1789995814.569088,0.000,-50.781,-93.262,-67.871
1789995814.572876,0.000,-60.059,-101.074,-60.059
1789995814.576664,0.000,-75.684,-104.980,-46.875
1789995814.580453,0.000,-75.195,-114.258,-46.875
1789995814.585893,-51.758,-70.312,-121.582,-41.016
1789995814.589684,-22.461,-72.266,-109.863,-12.207
1789995814.593476,-3.906,-67.383,-107.910,-2.441
1789995814.597267,-17.090,-69.336,-108.398,-8.789
1789995814.601058,-5.859,-72.266,-99.121,-8.301
1789995814.604850,6.348,-66.406,-98.633,2.441
1789995814.608641,15.625,-60.547,-94.727,15.625
1789995814.612432,4.883,-62.988,-95.215,-12.695
1789995814.616223,-11.719,-71.777,-102.539,-25.391
1789995814.620015,-1.465,-75.684,-97.656,-5.859
1789995814.623806,0.488,-69.824,-100.586,-3.418
1789995814.627597,-7.812,-66.406,-103.027,-19.531
1789995814.632917,0.000,-68.848,0.000,-29.785
1789995814.636711,0.000,-73.242,0.000,-33.691
1789995814.640505,0.000,-77.637,0.000,-26.855
1789995814.644299,0.000,-77.637,0.000,-26.855
1789995814.648093,0.000,-76.660,0.000,-41.016
1789995814.651887,0.000,-75.195,0.000,-40.527
1789995814.655681,0.000,-73.730,0.000,-25.391
1789995814.659475,0.000,-70.312,0.000,-11.719
1789995814.663269,0.000,-62.500,0.000,-23.438
1789995814.667063,0.000,-57.617,0.000,-35.645
1789995814.670856,0.000,-62.500,0.000,-27.832
1789995814.674650,0.000,-68.359,0.000,-21.973
1789995814.679746,-20.020,-67.871,-73.730,-21.484
1789995814.683542,-25.879,-61.035,-71.777,-23.926
1789995814.687338,-22.949,-63.965,-89.844,-25.879
1789995814.691134,-22.461,-60.547,-84.961,-16.602
1789995814.694930,-10.254,-53.711,-79.102,-15.625
1789995814.698726,-26.855,-63.965,-73.730,-32.227
1789995814.702523,-33.203,-66.895,-75.684,-36.133
1789995814.706319,-18.555,-61.035,-80.566,-14.160
1789995814.710115,-24.414,-71.289,-83.008,-22.461
1789995814.713911,-39.551,-70.312,-82.520,-31.738
1789995814.717707,-42.480,-65.918,-77.637,-25.391
1789995814.721503,-23.926,-69.824,-79.590,-28.809
1789995814.726459,-22.461,-75.195,-86.914,-37.598
1789995814.730257,-46.875,-78.613,-93.750,-49.805
1789995814.734055,-39.551,-71.289,-89.844,-46.875
1789995814.737853,-22.461,-72.754,-85.938,-43.945
1789995814.741651,-31.250,-74.707,-83.984,-38.574
1789995814.745449,-35.645,-74.219,-75.684,-40.039
1789995814.749247,-41.504,-66.895,-76.172,-49.805
1789995814.753045,-49.316,-67.383,-78.125,-55.664
1789995814.756843,-36.133,-64.941,-49.805,-44.434
1789995814.760641,-37.598,-62.012,-49.316,-42.480
1789995814.764439,-48.340,-59.570,-78.125,-56.152
1789995814.768238,-48.340,-57.617,-65.430,-60.059
1789995814.773162,-54.199,-54.199,-54.688,-59.570
1789995814.776962,-57.617,-55.176,-51.758,-60.059
1789995814.780762,-71.777,-58.105,-47.363,-77.148
1789995814.784562,-107.422,-48.828,-43.945,-109.375
1789995814.788362,-113.770,-41.016,-40.039,-119.141
1789995814.792162,-131.348,-29.297,-31.738,-125.488
1789995814.795962,-172.852,-21.484,-26.855,-159.180
1789995814.799762,-206.055,-15.625,-28.320,-197.266
1789995814.803562,-213.867,-7.324,-23.926,-221.191
1789995814.807362,-210.449,-4.395,-12.207,-217.285
1789995814.811162,-224.121,-2.930,-13.672,-229.980
1789995814.814961,-241.699,-2.441,-10.742,-240.723
1789995814.819841,-234.863,4.395,-11.230,-243.652
1789995814.823642,-216.797,12.695,-9.277,-229.980
1789995814.827444,-210.449,-5.371,-8.301,-219.238
1789995814.831246,-213.867,-16.602,-17.090,-225.098
1789995814.835047,-203.125,3.906,-10.254,-208.008
1789995814.838849,-166.992,0.488,-25.879,-168.945
1789995814.842651,-176.270,-35.645,-33.691,-166.992
1789995814.846452,-187.500,-53.223,-33.691,-176.270
1789995814.850254,-165.527,-45.410,-42.969,-150.879
1789995814.854056,-143.066,-48.828,-48.828,-124.023
1789995814.857857,-116.699,-50.781,-55.176,-110.840
1789995814.861659,-108.887,-52.246,-53.711,-106.445
1789995814.867091,-112.793,-69.824,-59.082,-103.027
1789995814.870895,-98.633,-75.684,-78.125,-88.867
1789995814.874699,-68.848,-84.473,-85.449,-62.988
1789995814.878504,-60.059,-91.797,-90.332,-56.152
1789995814.882308,-56.152,-84.961,-98.633,-68.359
1789995814.886112,-42.480,-86.914,-99.121,-58.105
1789995814.889916,-36.133,-87.891,-101.074,-38.086
1789995814.893720,-35.645,-82.520,-102.051,-38.574
1789995814.897525,-51.270,-97.656,-102.539,-43.457
1789995814.901329,-46.875,-109.375,-114.258,-27.832
1789995814.905133,-26.367,-94.727,-98.145,-18.066
1789995814.908937,-19.043,-97.656,-93.750,-11.719
1789995814.914199,-18.066,-100.098,-125.000,-11.719
1789995814.918005,-14.160,-92.285,-117.188,-16.113
1789995814.921812,9.277,-92.285,-98.633,3.906
1789995814.925618,19.043,-92.285,-100.098,21.484
1789995814.929425,-7.324,-107.422,-107.422,6.348
1789995814.933231,-24.902,-107.422,-109.863,-6.348
1789995814.937037,-16.602,-96.680,-115.723,3.418
1789995814.940844,3.418,-105.957,-106.934,20.508
1789995814.944650,14.160,-104.004,-100.586,35.645
1789995814.948457,2.441,-87.891,-104.492,14.648
1789995814.952263,11.230,-79.102,-93.750,7.812
1789995814.956070,24.414,-84.473,-92.285,32.715
1789995814.961215,6.836,-95.703,-103.516,27.832
1789995814.965024,2.441,-106.934,-100.586,20.508
1789995814.968832,15.625,-95.703,-101.562,15.137
1789995814.972641,13.184,-85.449,-86.426,13.672
1789995814.976449,10.254,-94.727,-86.426,29.297
1789995814.980258,8.301,-97.168,-114.746,24.414
1789995814.984066,1.953,-100.098,-113.281,5.371
1789995814.987875,7.812,-99.609,-114.258,6.836
1789995814.991683,20.996,-94.238,-111.816,22.461
1789995814.995492,20.020,-89.355,-109.375,12.207
1789995814.999300,5.859,-91.309,-109.375,-4.883
1789995815.003109,3.418,-97.168,-108.887,3.418
1789995815.008827,10.254,-96.191,-108.887,23.926
1789995815.012639,-3.418,-100.586,-109.863,19.531
1789995815.016450,-9.277,-98.145,-108.398,-7.812
1789995815.020261,-7.812,-90.332,-104.980,-3.418
1789995815.024073,4.883,-81.055,-103.027,18.555
1789995815.027884,10.742,-82.520,-105.469,19.531
1789995815.031695,-7.812,-91.309,-110.352,-6.836
1789995815.035507,-7.812,-91.309,-107.422,-6.836
1789995815.039318,-2.930,-94.238,-104.492,19.043
1789995815.043129,-7.812,-95.703,-104.492,16.113
1789995815.046941,-12.207,-92.285,-100.586,4.883
1789995815.050752,-11.230,-89.844,-97.168,7.324
1789995815.055684,0.000,-102.051,-104.980,3.418
1789995815.059497,0.000,-99.609,-114.258,-2.930
1789995815.063310,0.000,-90.332,-108.398,-3.418
1789995815.067123,0.000,-93.262,-104.004,-15.137
1789995815.070936,0.000,-87.891,-110.352,-13.672
1789995815.074749,0.000,-84.961,-102.539,0.977
1789995815.078562,0.000,-86.426,-93.262,-0.488
1789995815.082375,0.000,-85.449,-88.867,-15.625
1789995815.086188,0.000,-83.008,-84.473,-13.672
1789995815.090001,0.000,-91.309,-95.215,-7.324
1789995815.093814,0.000,-91.309,-99.609,-5.859
1789995815.097627,0.000,-81.055,-97.168,-5.859
1789995815.102423,-19.043,-82.031,-97.168,-12.695
1789995815.106237,-12.207,-95.703,-102.539,-14.648
1789995815.110052,-6.348,-104.004,-102.051,-12.207
1789995815.113866,-17.578,-75.195,-99.609,-8.301
1789995815.117680,-23.926,-67.871,-100.098,-10.254
1789995815.121495,-20.996,-81.055,-101.562,-16.113
1789995815.125309,-20.508,-85.449,-94.727,-4.883
1789995815.129123,-15.137,-88.867,-92.285,-2.930
1789995815.132938,-7.324,-73.730,-90.820,0.977
1789995815.136752,-7.324,-73.242,-87.891,-6.836
1789995815.140567,-15.137,-85.938,-93.750,-18.555
1789995815.144381,-20.996,-75.684,-87.402,-12.695
1789995815.149122,-28.320,-72.754,-86.426,-23.438
1789995815.152938,-25.879,-75.684,-89.355,-32.227
1789995815.156754,-20.020,-78.125,-88.867,-30.762
1789995815.160570,-20.996,-76.172,-90.820,-26.367
1789995815.164385,-26.855,-77.148,-101.074,-27.832
1789995815.168201,-28.320,-83.008,-76.660,-33.203
1789995815.172017,-17.578,-83.984,-71.777,-2.441
1789995815.175833,-3.906,-71.777,-98.145,10.254
1789995815.179648,8.789,-76.660,-98.633,-3.418
1789995815.183464,-3.906,-103.516,-85.449,-4.883
1789995815.187279,-40.527,-102.539,-78.613,-41.992
1789995815.191095,-42.480,-85.938,-88.867,-43.945
1789995815.195754,-37.598,-83.984,-82.031,-19.531
1789995815.199570,-60.059,-105.957,-80.078,-36.133
1789995815.203387,-54.688,-125.000,-78.125,-29.297
1789995815.207204,-15.625,-83.984,-55.176,0.977
1789995815.211021,-24.414,-70.801,-78.125,-2.441
1789995815.214838,-52.734,-96.191,-97.168,-25.391
1789995815.218655,-58.594,-91.797,-92.285,-31.250
1789995815.222471,-40.039,-83.008,-93.262,-29.297
1789995815.226288,-30.273,-88.867,-90.820,-29.785
1789995815.230105,-38.574,-88.379,-88.867,-30.762
1789995815.233922,-35.645,-78.125,-76.660,-27.344
1789995815.237739,-33.691,-98.633,-73.730,-26.367
1789995815.242904,-34.180,-116.211,-75.684,-9.277
1789995815.246723,-44.922,-97.656,-68.359,-26.367
1789995815.250542,-53.711,-86.914,-79.590,-43.457
1789995815.254361,-69.336,-83.984,-87.891,-29.297
1789995815.258179,-61.035,-82.520,-84.961,-27.832
1789995815.261998,-43.457,-86.426,-84.961,-29.785
1789995815.265817,-62.012,-85.449,-86.426,-44.434
1789995815.269635,-60.547,-73.730,-75.684,-44.434
1789995815.273454,-35.645,-79.102,-75.684,-32.715
1789995815.277273,-33.203,-94.238,-93.262,-24.414
1789995815.281091,-42.969,-75.195,-78.125,-29.297
1789995815.284910,-47.852,-75.684,-76.172,-36.133
1789995815.289956,-39.062,-81.543,-83.008,-31.738
1789995815.293777,-27.832,-67.871,-76.660,-34.668
1789995815.297597,-55.176,-76.660,-77.637,-46.387
1789995815.301417,-73.242,-80.566,-82.031,-54.199
1789995815.305238,-55.664,-78.613,-85.449,-43.457
1789995815.309058,-42.480,-89.355,-85.938,-40.527
1789995815.312878,-49.805,-80.078,-76.172,-40.527
1789995815.316699,-55.176,-75.684,-74.219,-43.945
1789995815.320519,-50.781,-79.102,-77.637,-34.668
1789995815.324339,-51.270,-67.383,-82.520,-27.344
1789995815.328160,-57.617,-70.312,-87.402,-42.480
1789995815.331980,-63.965,-74.219,-87.891,-50.293
1789995815.336964,-57.617,-82.520,-90.820,-55.176
1789995815.340786,-42.969,-87.891,-74.219,-42.480
1789995815.344608,-39.551,-78.613,-79.590,-25.391
1789995815.348429,-40.527,-78.125,-86.914,-32.227
1789995815.352251,-55.176,-87.402,-81.543,-34.180
1789995815.356073,-46.875,-91.309,-81.055,-24.414
1789995815.359895,-37.109,-75.684,-79.590,-28.320
1789995815.363717,-58.105,-63.965,-80.566,-37.598
1789995815.367539,-60.059,-67.871,-79.590,-30.762
1789995815.371361,-51.270,-71.289,-81.543,-32.715
1789995815.375183,-46.875,-74.219,-83.984,-28.320
1789995815.379004,-35.645,-59.570,-80.566,-17.090
1789995815.383887,-44.922,-61.523,-90.332,-44.434
1789995815.387710,-52.246,-78.613,-80.078,-62.988
1789995815.391534,-36.621,-75.195,-80.078,-32.227
1789995815.395357,-46.875,-70.312,-84.961,-29.785
1789995815.399180,-66.406,-73.730,-82.520,-50.781
1789995815.403003,-61.035,-78.613,-88.379,-47.363
1789995815.406827,-57.617,-76.660,-84.473,-41.504
1789995815.410650,-49.805,-72.266,-79.590,-36.621
1789995815.414473,-53.711,-65.918,-74.219,-28.320
1789995815.418297,-62.500,-63.965,-71.289,-36.133
1789995815.422120,-41.992,-71.777,-70.312,-36.621
1789995815.425943,-41.016,-70.801,-69.336,-31.250
1789995815.430785,-58.105,-67.871,-79.102,-45.898
1789995815.434609,-57.617,-71.777,-79.590,-52.734
1789995815.438434,-44.922,-62.500,-69.824,-44.434
1789995815.442258,-41.992,-77.637,-83.008,-31.738
1789995815.446083,-53.223,-84.961,-93.262,-37.109
1789995815.449908,-62.012,-70.312,-84.961,-39.062
1789995815.453732,-63.477,-72.754,-76.172,-25.879
1789995815.457557,-41.992,-82.031,-77.148,-16.113
1789995815.461381,-39.062,-85.449,-83.496,-27.344
1789995815.465206,-63.965,-83.984,-84.961,-51.270
1789995815.469030,-67.383,-78.613,-81.055,-53.711
1789995815.472855,-60.059,-68.359,-76.172,-40.039
1789995815.477566,-62.012,-68.848,-74.219,-34.180
1789995815.481392,-66.895,-71.777,-63.965,-55.176
1789995815.485217,-63.477,-69.824,-79.102,-59.082
1789995815.489043,-54.199,-64.941,-92.285,-44.922
1789995815.492869,-51.270,-62.988,-78.125,-45.898
1789995815.496695,-62.988,-69.336,-83.496,-54.688
1789995815.500520,-78.613,-83.496,-85.938,-46.387
1789995815.504346,-65.430,-86.426,-78.125,-34.668
1789995815.508172,-42.969,-72.754,-76.172,-36.133
1789995815.511997,-37.598,-64.453,-73.730,-36.133
1789995815.515823,-59.082,-61.035,-73.730,-53.223
1789995815.519649,-62.500,-63.965,-70.801,-61.035
1789995815.524268,-50.781,-71.289,-78.125,-43.457
1789995815.528095,-55.664,-79.590,-86.914,-42.480
1789995815.531921,-75.195,-82.520,-87.891,-61.035
1789995815.535748,-59.570,-71.777,-84.961,-50.781
1789995815.539575,-29.785,-62.012,-80.566,-33.691
1789995815.543401,-37.598,-68.848,-91.797,-52.246
1789995815.547228,-41.016,-73.730,-96.191,-58.105
1789995815.551055,-31.250,-66.895,-96.191,-52.734
1789995815.554881,-32.227,-68.848,-91.797,-57.129
1789995815.558708,-36.621,-70.801,-82.520,-47.363
1789995815.562535,-39.551,-64.453,-81.543,-47.852
1789995815.566361,-33.203,-61.523,-77.148,-52.734
1789995815.570931,-30.273,-64.453,-76.660,-43.457
1789995815.574758,-19.043,-78.613,-77.148,-24.414
1789995815.578586,-21.484,-76.660,-83.008,-29.297
1789995815.582413,-52.246,-69.824,-94.238,-58.105
1789995815.586241,-66.406,-75.195,-89.355,-72.266
1789995815.590069,-19.531,-70.801,-83.008,-40.527
1789995815.593896,2.441,-64.941,-56.641,-15.625
1789995815.597724,-40.527,-71.289,-67.871,-45.898
1789995815.601551,-43.945,-67.871,-95.703,-50.781
1789995815.605379,-29.297,-63.965,-80.078,-33.691
1789995815.609207,-23.926,-65.918,-79.102,-15.625
1789995815.613034,-21.484,-65.430,-73.730,-16.113
1789995815.618133,-31.738,-64.941,-74.707,-46.875
1789995815.621962,-20.020,-59.570,-88.379,-52.734
1789995815.625791,-0.977,-57.617,-94.238,-39.551
1789995815.629620,-15.137,-68.848,-93.262,-44.922
1789995815.633449,-14.160,-74.707,-68.359,-39.551
1789995815.637278,-10.254,-72.754,-70.801,-35.645
1789995815.641108,-19.531,-69.824,-98.145,-35.156
1789995815.644937,-10.254,-65.430,-86.914,-28.809
1789995815.648766,-28.320,-64.941,-83.008,-48.828
1789995815.652595,-56.152,-72.266,-81.543,-64.941
1789995815.656424,-41.504,-71.777,-79.102,-39.551
1789995815.660253,-23.438,-72.266,-85.938,-28.809
1789995815.665220,-20.508,-79.590,-84.961,-44.922
1789995815.669050,-31.738,-77.637,-84.473,-58.594
1789995815.672880,-38.086,-74.707,-91.309,-36.621
1789995815.676711,-13.672,-73.242,-76.172,-17.090
1789995815.680541,-20.508,-72.754,-81.055,-38.086
1789995815.684372,-35.645,-72.754,-67.871,-31.250
1789995815.688202,-41.016,-76.660,-69.824,-33.691
1789995815.692033,-32.227,-74.707,-104.980,-46.875
1789995815.695863,-31.250,-70.801,-87.891,-31.738
1789995815.699694,-25.391,-64.453,-76.660,-29.785
1789995815.703524,-32.227,-54.199,-82.031,-42.969
1789995815.707355,-48.828,-59.082,-79.102,-51.270
1789995815.712224,-26.855,-52.734,-72.266,-47.852
1789995815.716056,-33.203,-51.758,-70.312,-44.922
1789995815.719888,-50.781,-54.688,-62.500,-41.016
1789995815.723719,-43.457,-51.270,-48.828,-42.969
1789995815.727551,-42.480,-55.176,-61.523,-59.082
1789995815.731383,-56.152,-54.199,-69.336,-68.848
1789995815.735214,-46.387,-40.039,-43.945,-54.688
1789995815.739046,-39.551,-35.156,-42.480,-44.434
1789995815.742878,-58.105,-30.273,-45.410,-69.336
1789995815.746710,-80.078,-20.508,-36.133,-104.980
1789995815.750541,-116.699,-23.926,-42.969,-128.418
1789995815.754373,-129.395,-25.391,-36.133,-135.742
1789995815.759138,-144.043,-10.254,-29.297,-144.043
1789995815.762971,-186.035,-11.719,-20.996,-174.316
1789995815.766804,-199.219,-26.367,-11.230,-183.594
1789995815.770636,-189.453,-2.930,-10.742,-179.199
1789995815.774469,-184.082,17.578,4.883,-182.129
1789995815.778302,-199.219,0.000,-6.348,-198.730
1789995815.782135,-200.684,-30.273,-20.996,-213.379
1789995815.785968,-151.367,-20.508,-20.996,-169.922
1789995815.789800,-140.137,-4.883,-15.137,-126.465
1789995815.793633,-158.691,-29.785,-22.949,-144.531
1789995815.797466,-169.434,-39.062,-33.691,-154.297
1789995815.801299,-155.273,-54.688,-38.086,-137.695
1789995815.806007,-128.418,-59.570,-28.809,-118.652
1789995815.809841,-104.004,-54.199,-33.691,-89.355
1789995815.813675,-86.426,-64.453,-60.547,-91.797
1789995815.817508,-78.613,-86.914,-54.199,-85.449
1789995815.821342,-52.734,-69.824,-47.852,-42.480
1789995815.825176,-42.480,-64.453,-57.617,-31.738
1789995815.829010,-36.621,-96.191,-61.035,-20.020
1789995815.832844,-31.250,-80.566,-64.941,-7.324
1789995815.836677,-34.668,-71.777,-81.543,-32.715
1789995815.840511,-34.180,-81.055,-82.031,-29.297
1789995815.844345,-8.301,-81.055,-76.172,0.977
1789995815.848179,3.418,-87.402,-64.941,6.348
1789995815.852832,-13.672,-100.098,-52.246,8.789
1789995815.856667,-16.602,-92.285,-78.125,-2.930
1789995815.860501,-27.832,-86.914,-104.980,-14.648
1789995815.864336,-35.156,-97.168,-107.422,-14.160
1789995815.868171,-17.578,-95.703,-106.934,-21.973
1789995815.872005,-1.465,-91.797,-90.820,-6.348
1789995815.875840,1.465,-105.957,-93.262,2.930
1789995815.879675,2.441,-101.074,-96.191,7.812
1789995815.883510,7.812,-93.750,-88.867,11.230
1789995815.887344,1.953,-103.516,-97.168,6.348
1789995815.891179,36.621,-87.891,-86.914,30.273
1789995815.895014,44.922,-67.383,-75.684,37.598
1789995815.899579,21.973,-102.051,-97.168,22.461
1789995815.903414,24.902,-125.488,-98.145,22.949
1789995815.907250,19.043,-91.309,-94.238,24.414
1789995815.911085,32.227,-67.871,-91.309,31.250
1789995815.914921,30.762,-62.500,-80.078,30.762
1789995815.918756,19.043,-65.430,-76.660,24.414
1789995815.922592,26.367,-84.473,-80.566,30.273
1789995815.926427,31.250,-92.773,-83.496,41.992
1789995815.930263,16.602,-85.449,-106.934,26.367
1789995815.934098,1.953,-99.609,-109.375,8.789
1789995815.937934,17.578,-103.027,-99.121,19.531
1789995815.941769,24.414,-90.332,-88.379,46.387
1789995815.946251,28.320,-81.543,-80.566,41.016
1789995815.950088,6.348,-88.867,-96.191,11.719
1789995815.953924,2.930,-90.820,-90.820,16.602
1789995815.957760,36.621,-86.426,-80.078,40.527
1789995815.961596,30.273,-81.055,-80.078,35.645
1789995815.965432,8.301,-72.266,-81.543,21.484
1789995815.969269,24.902,-80.566,-93.750,43.457
1789995815.973105,41.992,-87.402,-78.613,50.781
1789995815.976941,26.367,-81.543,-82.031,24.902
1789995815.980777,25.879,-54.688,-84.961,25.879
1789995815.984614,23.438,-54.688,-89.355,19.531
1789995815.988450,27.832,-66.406,-82.031,25.879
1789995815.993350,37.598,-69.824,-80.078,35.645
1789995815.997187,20.996,-76.660,-98.633,10.742
1789995816.001024,3.906,-72.754,-85.449,0.488
1789995816.004862,7.812,-74.707,-93.262,3.418
1789995816.008699,41.504,-68.359,-99.609,16.113
1789995816.012537,35.645,-64.453,-90.820,2.441
1789995816.016374,0.488,-91.309,-104.004,-22.461
1789995816.020211,25.391,-78.125,-69.824,24.414
1789995816.024049,44.434,-46.875,-50.781,58.594
1789995816.027886,0.000,-62.012,-95.215,11.719
1789995816.031723,-8.789,-62.988,-91.797,-1.953
1789995816.035561,-1.465,-72.754,-85.938,-4.883
1789995816.040460,-0.977,-83.008,-74.219,-4.883
1789995816.044298,19.531,-81.055,-70.801,17.578
1789995816.048136,18.555,-67.871,-92.285,6.348
1789995816.051975,2.441,-70.801,-95.703,-21.973
1789995816.055814,17.578,-80.078,-102.539,-6.836
1789995816.059652,6.348,-76.660,-94.238,-0.488
1789995816.063491,-20.508,-79.590,-90.332,-26.367
1789995816.067329,-11.719,-76.172,-88.379,-38.574
1789995816.071168,0.488,-63.965,-77.148,-12.207
1789995816.075006,7.324,-76.660,-74.219,16.113
1789995816.078845,-0.488,-85.449,-62.988,-7.812
1789995816.082683,-22.949,-82.520,-72.266,-30.762
1789995816.087481,-23.438,-82.031,-91.309,-21.484
1789995816.091320,-4.883,-78.125,-78.613,-6.836
1789995816.095160,5.859,-76.172,-76.660,-8.789
1789995816.098999,-14.648,-64.453,-75.684,-16.113
1789995816.102839,-15.625,-56.641,-75.195,-11.230
1789995816.106678,11.230,-57.617,-73.730,1.465
1789995816.110518,10.742,-65.430,-59.082,12.207
1789995816.114357,-12.695,-75.684,-53.223,-12.695
1789995816.118197,-34.180,-74.219,-81.055,-33.691
1789995816.122036,-17.578,-70.312,-78.613,-17.578
1789995816.125876,17.090,-61.035,-61.523,-3.906
1789995816.129715,-4.883,-59.082,-64.453,-15.137
1789995816.134417,-32.715,-70.801,-77.148,-43.457
1789995816.138257,-20.508,-75.195,-83.984,-43.457
1789995816.142098,-0.488,-74.707,-80.566,-13.184
1789995816.145938,-13.184,-78.125,-60.547,-11.719
1789995816.149779,-26.367,-73.242,-69.336,-30.762
1789995816.153619,-12.207,-67.383,-104.980,-25.391
1789995816.157459,-2.441,-63.477,-89.844,-20.020
1789995816.161300,-15.625,-69.824,-74.219,-20.020
1789995816.165140,-25.391,-74.219,-77.148,-31.738
1789995816.168981,-27.832,-77.148,-74.219,-38.086
1789995816.172821,-34.668,-83.008,-80.078,-33.691
1789995816.176661,-25.391,-73.242,-82.520,-25.391
1789995816.181266,-31.250,-69.824,-78.125,-33.203
1789995816.185107,-36.133,-80.078,-78.613,-31.250
1789995816.188948,-32.227,-83.008,-74.707,-30.273
1789995816.192789,-26.855,-92.285,-61.523,-19.531
1789995816.196630,-21.484,-84.473,-81.543,-16.602
1789995816.200472,-27.832,-62.988,-86.426,-37.598
1789995816.204313,-28.809,-63.965,-64.453,-36.133
1789995816.208154,-31.738,-72.266,-65.430,-21.484
1789995816.211995,-26.367,-80.566,-65.430,-13.184
1789995816.215837,-29.297,-64.453,-60.059,-26.367
1789995816.219678,-33.203,-53.223,-68.848,-25.391
1789995816.223519,-41.504,-67.871,-74.219,-31.738
1789995816.228053,-48.340,-76.660,-77.148,-42.480
1789995816.231895,-41.016,-67.871,-86.914,-48.828
1789995816.235737,-44.922,-64.453,-74.219,-36.621
1789995816.239579,-37.109,-82.031,-77.148,-24.902
1789995816.243421,-24.902,-87.402,-82.520,-31.250
1789995816.247262,-35.156,-81.055,-79.102,-36.133
1789995816.251104,-60.547,-76.660,-79.590,-53.223
1789995816.254946,-40.039,-69.336,-78.125,-32.715
1789995816.258788,-18.066,-87.891,-90.332,-17.578
1789995816.262630,-39.551,-88.867,-68.359,-32.715
1789995816.266472,-36.621,-45.410,-62.988,-33.691
1789995816.270314,-47.363,-60.059,-92.773,-43.945
1789995816.274791,-34.180,-74.707,-89.844,-40.527
1789995816.278634,-13.184,-54.688,-76.172,-25.391
1789995816.282476,-32.715,-55.176,-78.125,-30.762
1789995816.286319,-48.828,-62.012,-88.867,-31.738
1789995816.290161,-50.293,-69.824,-76.172,-39.062
1789995816.294004,-40.527,-76.660,-69.824,-54.199
1789995816.297846,-40.039,-81.055,-88.379,-44.922
1789995816.301689,-37.598,-88.867,-82.520,-35.645
1789995816.305532,-50.293,-92.773,-84.473,-48.828
1789995816.309374,-47.852,-74.219,-99.121,-48.828
1789995816.313217,-32.715,-77.148,-94.727,-56.152
1789995816.317059,-44.434,-93.750,-81.055,-57.617
1789995816.321470,-27.344,-60.547,-54.199,-33.203
1789995816.325313,-7.812,-49.316,-63.965,-27.832
1789995816.329156,-51.758,-69.824,-93.750,-66.406
1789995816.332999,-67.383,-61.523,-75.195,-65.918
1789995816.336842,-49.805,-58.594,-71.289,-38.574
1789995816.340685,-58.105,-83.496,-91.797,-50.293
1789995816.344528,-63.965,-86.426,-95.703,-64.941
1789995816.348372,-62.012,-85.938,-91.309,-73.242
1789995816.352215,-52.246,-83.496,-84.473,-60.547
1789995816.356058,-36.621,-77.637,-90.332,-39.062
1789995816.359901,-44.434,-79.102,-78.125,-42.969
1789995816.363744,-55.176,-71.777,-62.500,-58.594
1789995816.368549,-42.969,-65.430,-47.363,-65.430
1789995816.372393,-47.852,-81.543,-48.340,-60.059
1789995816.376237,-58.594,-85.938,-61.035,-43.945
1789995816.380081,-36.621,-72.266,-52.246,-33.691
1789995816.383925,-43.457,-68.359,-58.105,-43.457
1789995816.387769,-57.617,-81.543,-67.383,-51.758
1789995816.391613,-35.645,-92.285,-71.777,-38.574
1789995816.395457,-29.297,-87.891,-63.477,-39.062
1789995816.399301,-82.520,-81.543,-60.547,-65.918
1789995816.403145,-85.449,-70.312,-60.547,-73.242
1789995816.406989,-62.988,-79.102,-61.035,-55.664
1789995816.410833,-61.523,-91.309,-38.574,-49.316
1789995816.415592,-72.266,-82.520,-48.340,-52.246
1789995816.419437,-80.078,-82.031,-66.895,-59.570
1789995816.423282,-38.086,-87.891,-50.781,-44.922
1789995816.427127,-24.902,-80.078,-50.293,-35.645
1789995816.430972,-59.082,-87.402,-49.316,-58.594
1789995816.434817,-78.613,-93.262,-62.500,-62.988
1789995816.438662,-73.730,-91.309,-69.824,-51.758
1789995816.442507,-62.012,-86.914,-70.801,-48.828
1789995816.446352,-70.312,-96.680,-65.430,-58.594
1789995816.450197,-84.961,-94.727,-57.129,-61.035
1789995816.454042,-70.312,-70.801,-73.242,-42.969
1789995816.457887,-45.898,-70.801,-72.754,-35.156
1789995816.462583,-49.316,-83.008,-72.754,-44.434
1789995816.466429,-62.012,-84.961,-69.824,-55.664
1789995816.470274,-54.688,-82.031,-69.824,-60.059
1789995816.474120,-45.410,-70.801,-71.289,-26.855
1789995816.477966,-45.410,-69.824,-62.988,-24.414
1789995816.481812,-60.059,-84.961,-72.266,-48.340
1789995816.485657,-69.824,-83.984,-58.594,-54.199
1789995816.489503,-53.711,-78.613,-60.059,-49.805
1789995816.493349,-37.109,-83.984,-79.102,-28.320
1789995816.497195,-46.875,-86.426,-70.801,-43.945
1789995816.501040,-61.035,-81.543,-71.289,-61.035
1789995816.504886,-52.734,-81.055,-81.543,-53.711
1789995816.509495,-53.711,-78.613,-86.426,-41.016
1789995816.513341,-64.941,-86.426,-83.496,-54.199
1789995816.517188,-56.641,-77.637,-83.008,-56.641
1789995816.521034,-48.828,-75.195,-77.148,-42.969
1789995816.524880,-41.504,-78.613,-75.684,-42.969
1789995816.528727,-44.434,-75.195,-85.938,-44.922
1789995816.532573,-48.828,-72.754,-86.914,-46.387
1789995816.536420,-26.855,-66.406,-82.031,-42.969
1789995816.540267,-31.738,-72.266,-78.613,-34.180
1789995816.544113,-36.133,-72.266,-83.008,-33.203
1789995816.547959,-26.367,-76.172,-80.566,-41.992
1789995816.551806,-40.527,-83.984,-72.754,-48.340
1789995816.556385,-53.711,-79.590,-79.590,-47.363
1789995816.560232,-44.434,-83.984,-88.379,-24.414
1789995816.564079,-43.945,-77.148,-60.059,-24.414
1789995816.567926,-55.176,-68.848,-63.477,-40.527
1789995816.571773,-45.410,-65.918,-83.984,-24.902
1789995816.575620,-14.648,-62.500,-68.359,-15.625
1789995816.579468,-25.391,-69.824,-68.848,-24.414
1789995816.583315,-41.992,-61.035,-73.730,-25.879
1789995816.587162,-50.293,-65.918,-68.359,-32.227
1789995816.591009,-23.438,-78.125,-70.312,-23.438
1789995816.594856,-9.277,-66.895,-76.660,-17.578
1789995816.598703,-39.551,-64.941,-78.613,-33.691
1789995816.603236,0.000,-65.430,-58.594,-46.387
1789995816.607084,0.000,-66.895,-63.965,-39.062
1789995816.610931,0.000,-64.941,-87.891,-26.855
1789995816.614779,0.000,-56.152,-74.707,-36.133
1789995816.618627,0.000,-59.570,-77.637,-40.527
1789995816.622475,0.000,-67.871,-78.613,-40.039
1789995816.626323,0.000,-58.594,-75.684,-23.926
1789995816.630170,0.000,-59.082,-67.871,-14.160
1789995816.634018,0.000,-63.477,-71.289,-40.527
1789995816.637866,0.000,-60.547,-87.402,-51.270
1789995816.641714,0.000,-70.801,-79.590,-18.555
1789995816.645561,0.000,-76.172,-76.660,-16.113
1789995816.649966,-58.105,-72.266,-63.477,-35.156
1789995816.653814,-48.340,-67.871,-70.801,-32.715
1789995816.657662,-41.016,-62.988,-93.262,-27.832
1789995816.661510,-47.363,-60.059,-86.426,-35.156
1789995816.665359,-53.223,-60.547,-83.984,-44.922
1789995816.669207,-53.223,-67.383,-80.566,-39.551
1789995816.673055,-46.387,-65.430,-80.078,-30.762
1789995816.676904,-29.785,-70.312,-79.590,-26.367
1789995816.680752,-23.438,-68.359,-77.637,-34.668
1789995816.684600,-32.227,-63.965,-68.359,-33.203
1789995816.688449,-31.738,-71.777,-83.984,-28.320
1789995816.692297,-32.227,-73.730,-78.125,-32.227
1789995816.696699,-28.809,-70.312,-77.637,-35.156
1789995816.700548,-20.508,-72.266,-84.473,-26.855
1789995816.704397,-20.508,-67.383,-73.730,-21.973
1789995816.708246,-36.621,-59.570,-83.984,-37.109
1789995816.712094,-29.297,-65.430,-86.914,-43.945
1789995816.715943,-22.949,-62.012,-85.938,-44.434
1789995816.719792,-21.484,-53.711,-82.520,-33.691
1789995816.723641,1.465,-61.523,-76.172,-15.137
1789995816.727489,1.465,-59.570,-78.125,-12.695
1789995816.731338,-21.973,-61.035,-74.219,-20.020
1789995816.735187,-28.320,-70.801,-74.707,-27.832
1789995816.739036,2.441,-64.453,-89.844,-16.113
1789995816.743812,-8.789,-61.523,-82.031,-21.973
1789995816.747661,-28.809,-62.988,-77.148,-40.039
1789995816.751511,-23.438,-57.129,-68.359,-32.715
1789995816.755361,-17.090,-51.270,-62.988,-27.832
1789995816.759210,5.859,-55.176,-63.477,-21.973
1789995816.763060,-27.344,-69.824,-74.707,-31.250
1789995816.766910,-58.105,-79.102,-76.172,-42.969
1789995816.770759,-27.832,-70.801,-78.125,-47.363
1789995816.774609,-18.555,-63.965,-84.473,-38.574
1789995816.778459,-32.227,-68.848,-89.355,-33.691
1789995816.782308,-30.273,-65.918,-70.801,-43.945
1789995816.786158,-32.715,-61.035,-70.801,-34.668
1789995816.790898,-16.113,-63.965,-93.262,-20.508
1789995816.794749,-17.578,-70.312,-87.402,-32.715
1789995816.798599,-46.875,-63.965,-83.496,-41.016
1789995816.802449,-54.688,-64.941,-86.914,-55.664
1789995816.806300,-39.551,-67.871,-79.590,-41.992
1789995816.810150,-32.715,-67.871,-63.965,-14.160
1789995816.814001,-51.270,-70.312,-71.289,-36.621
1789995816.817851,-45.898,-71.289,-76.172,-44.434
1789995816.821702,-43.945,-88.379,-69.824,-37.109
1789995816.825552,-60.059,-83.496,-91.309,-36.621
1789995816.829402,-71.289,-60.547,-101.074,-37.598
1789995816.833253,-95.703,-71.289,-89.844,-58.594
1789995816.837888,-82.031,-77.148,-95.215,-65.918
1789995816.841740,-52.734,-70.312,-89.355,-45.898
1789995816.845591,-48.828,-70.312,-75.195,-32.227
1789995816.849442,-61.523,-62.012,-74.219,-38.574
1789995816.853293,-63.965,-56.641,-76.660,-39.062
1789995816.857144,-52.734,-63.477,-84.473,-37.109
1789995816.860995,-42.480,-83.008,-92.773,-41.992
1789995816.864846,-54.688,-85.938,-95.215,-49.805
1789995816.868697,-69.824,-71.289,-76.172,-52.734
1789995816.872549,-45.410,-64.453,-70.801,-37.598
1789995816.876400,-31.250,-60.547,-74.707,-28.809
1789995816.880251,-59.570,-78.125,-74.707,-41.504
1789995816.884817,-69.824,-83.984,-77.148,-44.434
1789995816.888669,-48.828,-83.984,-69.336,-26.367
1789995816.892520,-34.668,-89.355,-62.012,-12.207
1789995816.896372,-62.988,-89.844,-80.566,-34.668
1789995816.900224,-79.590,-81.055,-72.754,-46.387
1789995816.904076,-70.312,-86.426,-74.707,-39.062
1789995816.907927,-56.641,-99.121,-83.984,-30.762
1789995816.911779,-28.809,-61.523,-57.129,-13.672
1789995816.915631,-45.410,-69.336,-65.918,-23.438
1789995816.919482,-79.590,-101.562,-91.797,-70.312
1789995816.923334,-72.266,-82.031,-82.031,-51.758
1789995816.927186,-55.176,-70.312,-79.590,-28.320
1789995816.931734,-32.715,-68.848,-73.730,-23.926
1789995816.935586,0.488,-37.598,-38.574,0.977
1789995816.939438,-11.719,-66.406,-57.617,-20.996
1789995816.943290,-45.410,-91.797,-92.773,-40.527
1789995816.947143,-37.109,-65.430,-96.680,-35.645
1789995816.950995,-45.898,-77.637,-87.402,-44.434
1789995816.954848,-59.082,-82.520,-85.938,-50.293
1789995816.958700,-46.387,-80.078,-79.102,-36.133
1789995816.962552,-52.246,-85.449,-83.008,-41.504
1789995816.966405,-65.430,-70.801,-86.914,-50.293
1789995816.970257,-60.547,-74.219,-78.613,-55.176
1789995816.974109,-30.762,-83.008,-71.777,-30.762
1789995816.978573,0.000,-68.848,-53.711,-0.977
1789995816.982426,0.000,-56.152,-29.785,-21.973
1789995816.986279,0.000,-57.129,-50.781,-41.992
1789995816.990131,0.000,-60.059,-66.895,-41.016
1789995816.993984,0.000,-75.195,-73.242,-52.246
1789995816.997837,0.000,-74.707,-61.523,-45.410
1789995817.001690,0.000,-57.129,-7.812,2.441
1789995817.005543,0.000,-74.219,-41.992,-26.855
1789995817.009396,0.000,-64.453,-76.172,-57.129
1789995817.013248,0.000,-54.688,-46.387,-42.969
1789995817.017101,0.000,-77.148,-66.406,-79.102
1789995817.020954,0.000,-92.773,-92.773,-107.910
1789995817.025348,-54.688,-56.152,-82.520,-62.012
1789995817.029201,-46.875,-42.480,-70.801,-47.363
1789995817.033054,-77.637,-68.359,-80.078,-79.102
1789995817.036908,-94.727,-90.820,-81.055,-95.703
1789995817.040761,-88.379,-103.027,-80.078,-87.891
1789995817.044614,-78.125,-82.031,-84.961,-77.637
1789995817.048468,-83.496,-69.824,-77.637,-77.637
1789995817.052321,-89.844,-83.984,-75.195,-79.590
1789995817.056174,-78.125,-79.590,-70.801,-61.523
1789995817.060028,-41.992,-56.641,-34.180,-35.156
1789995817.063881,-66.406,-65.430,-45.898,-56.641
1789995817.067734,-83.008,-59.082,-71.289,-62.012
1789995817.072137,-34.668,-25.879,-26.367,-15.625
1789995817.075991,-54.688,-47.852,-31.250,-22.461
1789995817.079845,-90.820,-76.172,-61.523,-69.824
1789995817.083699,-75.684,-42.969,-26.855,-55.664
1789995817.087553,-86.914,-63.965,-44.922,-70.801
1789995817.091406,-98.633,-102.051,-73.730,-81.543
1789995817.095260,-88.379,-56.152,-28.809,-58.594
1789995817.099114,-106.934,-33.691,-13.184,-81.543
1789995817.102968,-118.164,-48.828,-46.875,-97.168
1789995817.106821,-105.469,-30.273,-22.461,-85.938
1789995817.110675,-136.719,-13.184,-12.207,-109.863
1789995817.114529,-178.711,-47.852,-35.156,-166.992
1789995817.119203,-175.293,-70.312,-19.043,-171.875
1789995817.123057,-129.395,-32.715,16.602,-112.793
1789995817.126912,-138.184,-28.809,6.836,-126.465
1789995817.130766,-204.590,-58.594,-23.438,-203.613
1789995817.134621,-208.008,1.465,-18.555,-220.215
1789995817.138475,-218.750,29.297,-27.344,-248.047
1789995817.142330,-210.449,7.324,-46.875,-231.445
1789995817.146184,-192.383,-6.836,-46.387,-208.008
1789995817.150038,-204.590,-10.742,-50.293,-220.703
1789995817.153893,-175.293,-14.160,-41.504,-183.594
1789995817.157747,-108.398,-34.180,-21.484,-117.188
1789995817.161602,-75.195,5.371,-30.762,-86.914
1789995817.166279,-128.906,-4.883,-95.215,-151.367
1789995817.170134,-150.391,-23.438,-107.910,-174.316
1789995817.173989,-102.539,7.324,-82.031,-112.793
1789995817.177844,-112.793,-47.852,-130.859,-129.883
1789995817.181699,-104.492,-64.453,-126.465,-118.164
1789995817.185554,-78.125,-68.848,-112.793,-93.262
1789995817.189409,-80.566,-51.270,-133.789,-99.609
1789995817.193264,-49.316,-3.906,-127.930,-71.777
1789995817.197119,-48.340,-77.148,-109.375,-58.105
1789995817.200975,-48.828,-90.332,-116.211,-44.434
1789995817.204830,-20.020,-75.684,-126.465,-43.945
1789995817.208685,2.441,-79.590,-114.258,-31.250
1789995817.213262,-4.883,-90.332,-123.047,-29.297
1789995817.217118,3.418,-83.496,-98.145,-21.484
1789995817.220974,30.273,-70.312,-81.055,5.371
1789995817.224829,19.531,-86.914,-108.398,-6.836
1789995817.228685,1.953,-91.309,-121.582,-17.090
1789995817.232541,21.484,-67.383,-89.355,14.160
1789995817.236397,18.066,-73.730,-98.633,-2.930
1789995817.240252,2.930,-93.750,-107.422,-14.648
1789995817.244108,10.742,-94.238,-113.281,0.488
1789995817.247964,12.695,-93.262,-130.371,0.488
1789995817.251819,4.883,-86.426,-115.723,-0.488
1789995817.255675,5.859,-83.984,-112.793,8.301
1789995817.260162,21.973,-83.008,-109.863,35.156
1789995817.264019,19.531,-11.230,-110.840,24.414
1789995817.267875,0.488,-48.828,-105.469,7.812
1789995817.271731,22.461,-110.840,-84.473,30.273
1789995817.275587,68.848,-70.801,-94.727,53.711
1789995817.279444,64.941,-68.359,-98.633,50.293
1789995817.283300,19.043,-95.215,-110.840,23.926
1789995817.287156,17.090,-101.562,-103.027,21.973
1789995817.291012,21.484,-88.379,-97.656,30.273
1789995817.294868,15.137,-83.008,-105.957,11.719
1789995817.298724,27.344,-70.801,-83.496,13.672
1789995817.302581,20.508,-67.383,-81.543,16.113
1789995817.307030,2.930,-83.008,-89.844,0.000
1789995817.310887,11.230,-84.473,-99.609,2.441
1789995817.314744,10.254,-83.008,-117.676,-5.859
1789995817.318601,13.672,-61.523,-101.562,0.488
1789995817.322457,21.973,-62.500,-93.262,19.531
1789995817.326314,17.090,-91.309,-93.750,26.855
1789995817.330171,23.926,-77.637,-88.867,17.090
1789995817.334027,11.230,-71.289,-91.797,12.207
1789995817.337884,-0.488,-72.266,-95.703,9.277
1789995817.341741,23.926,-87.891,-87.891,14.160
1789995817.345597,28.809,-73.730,-89.844,24.902
1789995817.349454,6.836,-69.336,-100.098,-3.906
1789995817.353838,-14.160,-84.473,-91.309,-9.766
1789995817.357695,-2.441,-97.656,-104.492,9.277
1789995817.361552,4.883,-45.898,-112.305,-4.395
1789995817.365410,4.395,-46.387,-88.867,3.906
1789995817.369267,20.996,-132.812,-77.637,2.930
1789995817.373124,27.344,-114.258,-90.332,-3.418
1789995817.376981,19.043,-122.070,-93.750,-0.488
1789995817.380838,-5.859,-125.488,-94.727,-20.996
1789995817.384695,-3.418,-113.281,-84.473,-20.996
1789995817.388552,19.043,-99.121,-60.059,8.301
1789995817.392409,36.621,-90.332,-64.453,19.531
1789995817.396266,5.859,-112.793,-75.195,-15.137
1789995817.400603,-28.809,-125.488,-72.266,-38.574
1789995817.404460,-14.648,-112.305,-83.496,-19.531
1789995817.408318,-12.207,-102.539,-84.961,-12.695
1789995817.412175,-16.602,-97.656,-83.984,-10.254
1789995817.416033,-13.184,-97.656,-83.984,-4.395
1789995817.419890,-18.066,-104.004,-85.938,-15.625
1789995817.423748,-13.672,-92.773,-81.055,-3.418
1789995817.427605,-9.766,-101.562,-72.754,6.836
1789995817.431463,-21.973,-122.070,-77.148,-24.902
1789995817.435320,-35.645,-107.910,-89.844,-29.785
1789995817.439178,-16.602,-80.566,-66.895,-6.836
1789995817.443035,-15.137,-78.125,-71.289,-8.301
1789995817.447310,-44.434,-92.285,-105.469,-25.879
1789995817.451167,-50.293,-104.492,-93.262,-20.508
1789995817.455025,-40.039,-96.680,-90.820,-12.207
1789995817.458883,-14.160,-85.449,-99.609,-3.906
1789995817.462741,-4.395,-86.914,-99.609,3.906
1789995817.466599,-32.715,-106.934,-79.590,-23.926
1789995817.470456,-53.711,-112.305,-72.266,-41.016
1789995817.474314,-35.645,-95.703,-71.289,-19.043
1789995817.478172,-28.320,-91.797,-69.336,-17.578
1789995817.482030,-40.527,-107.910,-77.148,-30.762
1789995817.485888,-31.250,-100.586,-74.219,-23.438
1789995817.489745,-38.086,-72.266,-70.801,-23.438
1789995817.494378,-46.875,-111.816,-69.336,-21.484
1789995817.498236,-37.598,-117.188,-77.148,-24.414
1789995817.502095,-45.898,-101.562,-82.031,-38.574
1789995817.505953,-36.133,-100.586,-79.102,-24.902
1789995817.509811,-20.996,-90.332,-77.148,-8.301
1789995817.513670,-30.762,-88.867,-72.754,-20.996
1789995817.517528,-36.133,-85.449,-74.219,-22.949
1789995817.521386,-37.109,-82.520,-79.590,-12.695
1789995817.525245,-27.344,-88.379,-64.941,1.465
1789995817.529103,-34.180,-94.238,-70.801,-0.977
1789995817.532962,-51.758,-97.168,-73.730,-21.484
1789995817.536820,-47.852,-97.168,-70.312,-24.414
1789995817.541391,-54.688,-95.703,-83.008,-21.973
1789995817.545250,-49.805,-102.539,-84.961,-17.090
1789995817.549109,-32.227,-97.656,-79.102,-6.836
1789995817.552968,-35.156,-97.656,-76.660,-18.555
1789995817.556827,-38.574,-104.492,-83.008,-30.273
1789995817.560685,-23.926,-90.332,-96.191,-18.066
1789995817.564544,-32.715,-83.496,-83.496,-29.297
1789995817.568403,-55.664,-88.379,-82.520,-38.574
1789995817.572262,-45.410,-97.656,-79.102,-19.043
1789995817.576121,-31.738,-97.656,-77.637,-8.301
1789995817.579980,-48.828,-94.727,-77.148,-24.414
1789995817.583839,-59.570,-99.121,-80.078,-40.527
1789995817.588398,0.000,-95.215,0.000,-39.062
1789995817.592257,0.000,-89.844,0.000,-23.926
1789995817.596117,0.000,-87.402,0.000,-24.902
1789995817.599976,0.000,-90.820,0.000,-50.293
1789995817.603836,0.000,-90.820,0.000,-45.898
1789995817.607695,0.000,-80.078,0.000,-35.645
1789995817.611555,0.000,-76.172,0.000,-36.133
1789995817.615414,0.000,-79.102,0.000,-43.945
1789995817.619273,0.000,-74.219,0.000,-52.734
1789995817.623133,0.000,-75.195,0.000,-50.293
1789995817.626992,0.000,-20.996,0.000,-78.125
1789995817.630852,0.000,-32.715,0.000,-99.609
1789995817.635324,-107.422,-106.934,-45.410,-107.910
1789995817.639184,-116.699,-72.754,-43.945,-119.629
1789995817.643044,-117.188,-50.781,-57.617,-105.957
1789995817.646904,-137.695,-44.922,-41.016,-128.906
1789995817.650764,-163.574,-22.949,-53.223,-162.109
1789995817.654624,-176.270,-23.438,-47.852,-182.129
1789995817.658484,-173.828,-22.949,-35.645,-187.500
1789995817.662344,-193.848,-5.859,-35.156,-197.754
1789995817.666203,-209.961,2.930,-21.484,-212.402
1789995817.670063,-190.918,12.207,-13.672,-208.008
1789995817.673923,-185.059,12.207,-10.254,-193.359
1789995817.677783,-170.898,2.441,-19.043,-184.570
1789995817.682202,-165.527,-2.441,-23.438,-176.270
1789995817.686063,-164.062,-13.672,-31.738,-162.598
1789995817.689923,-141.113,-24.414,-46.875,-145.020
1789995817.693783,-112.305,-40.527,-32.715,-129.883
1789995817.697644,-108.887,-56.152,-32.715,-127.930
1789995817.701504,-122.070,-51.758,-42.480,-136.230
1789995817.705364,-102.051,-56.641,-49.805,-120.605
1789995817.709225,-89.355,-74.707,-48.340,-87.891
1789995817.713085,-74.707,-76.172,-54.688,-72.266
1789995817.716945,-75.195,-77.637,-54.688,-71.777
1789995817.720806,-69.336,-79.102,-55.664,-71.777
1789995817.724666,-47.363,-82.031,-81.543,-58.105
1789995817.729065,0.000,-73.730,-84.961,-44.922
1789995817.732926,0.000,-78.613,-87.402,-49.316
1789995817.736786,0.000,-95.703,-93.750,-63.477
1789995817.740647,0.000,-89.844,-92.773,-43.945
1789995817.744508,0.000,-88.379,-91.797,-38.086
1789995817.748369,0.000,-95.215,-91.797,-40.527
1789995817.752229,0.000,-96.680,-96.680,-19.043
1789995817.756090,0.000,-94.238,-101.562,0.000
1789995817.759951,0.000,-96.680,-78.613,-11.230
1789995817.763811,0.000,-93.262,-79.102,-35.156
1789995817.767672,0.000,-87.402,-110.352,-27.344
1789995817.771533,0.000,-89.355,-97.168,-11.230
1789995817.775855,-3.906,-85.938,-93.262,-5.859
1789995817.779716,-1.465,-89.355,-97.168,-8.301
1789995817.783576,-9.766,-94.238,-98.145,-10.742
1789995817.787438,-23.926,-95.703,-103.027,-30.762
1789995817.791299,-7.324,-92.285,-92.285,-0.488
1789995817.795160,1.953,-84.961,-82.031,15.137
1789995817.799021,-12.207,-76.660,-79.590,-7.812
1789995817.802882,-31.250,-76.172,-63.477,-15.137
1789995817.806743,-7.324,-71.289,-61.523,-14.160
1789995817.810604,-19.043,-68.848,-78.613,-21.973
1789995817.814465,-61.523,-68.359,-72.266,-48.340
1789995817.818326,-53.711,-52.246,-75.195,-41.504
1789995817.822610,-54.199,-39.551,-68.848,-52.734
1789995817.826471,-74.219,-26.855,-51.270,-79.590
1789995817.830332,-89.355,-15.137,-49.316,-90.820
1789995817.834194,-116.211,-11.719,-45.410,-118.164
1789995817.838055,-144.043,-5.371,-36.133,-151.367
1789995817.841916,-129.883,-2.441,-23.438,-137.207
1789995817.845778,-123.535,-5.371,1.953,-131.836
1789995817.849639,-142.578,-6.348,-7.324,-163.086
1789995817.853500,-141.602,6.836,-29.297,-154.785
1789995817.857362,-122.070,0.000,-20.996,-129.883
1789995817.861223,-106.934,-8.789,-22.461,-129.883
1789995817.865084,-122.559,-12.695,-23.438,-144.043
1789995817.869657,-131.836,-25.879,-40.039,-143.555
1789995817.873519,-108.398,-25.879,-52.734,-114.746
1789995817.877380,-82.520,-28.809,-49.316,-88.379
1789995817.881242,-76.172,-36.621,-62.988,-87.402
1789995817.885104,-88.379,-41.504,-77.148,-95.703
1789995817.888966,-74.707,-67.871,-57.617,-86.426
1789995817.892828,-40.527,-71.777,-70.801,-55.664
1789995817.896690,-35.645,-55.664,-88.379,-45.410
1789995817.900552,-50.293,-65.430,-87.402,-53.711
1789995817.904413,-38.086,-62.500,-85.938,-29.785
1789995817.908275,-5.371,-69.336,-89.355,-24.414
1789995817.912137,-11.719,-77.148,-106.445,-29.297
1789995817.916653,-12.695,-74.219,-90.332,-16.602
1789995817.920515,6.836,-83.008,-82.031,3.906
1789995817.924377,-8.789,-95.215,-104.980,-6.348
1789995817.928240,-17.090,-89.844,-87.891,-17.578
1789995817.932102,-20.996,-85.938,-88.379,-20.020
1789995817.935964,-20.020,-97.168,-114.746,-17.090
1789995817.939827,1.465,-99.609,-103.516,10.742
1789995817.943689,18.066,-96.191,-104.004,4.395
1789995817.947551,3.418,-103.027,-103.516,-7.324
1789995817.951414,8.789,-100.098,-94.727,13.184
1789995817.955276,13.672,-89.355,-98.633,12.695
1789995817.959138,4.395,-94.727,-106.445,10.254
1789995817.963610,15.137,-97.656,-86.914,11.230
1789995817.967472,8.789,-92.285,-89.844,-0.488
1789995817.971335,9.766,-91.309,-104.980,12.207
1789995817.975198,10.742,-98.633,-89.355,25.879
1789995817.979061,-4.395,-104.492,-98.633,7.812
1789995817.982923,-19.531,-105.469,-104.980,-12.695
1789995817.986786,-23.438,-110.352,-108.398,-30.273
1789995817.990649,2.930,-107.910,-99.609,-4.883
1789995817.994512,13.184,-97.656,-90.820,20.996
1789995817.998374,-3.418,-99.121,-102.051,3.418
1789995818.002237,-5.371,-104.004,-93.750,-16.602
1789995818.006100,3.418,-90.332,-76.660,-6.348
1789995818.010528,16.602,-85.449,-103.516,18.066
1789995818.014391,12.695,-92.773,-107.910,9.766
1789995818.018255,-12.207,-98.145,-97.168,-6.836
1789995818.022118,11.719,-89.355,-94.238,0.000
1789995818.025981,34.668,-81.543,-86.914,0.000
1789995818.029844,12.695,-90.820,-96.680,-9.277
1789995818.033707,13.184,-90.332,-101.074,-6.348
1789995818.037570,22.461,-86.914,-89.355,0.000
1789995818.041433,19.531,-84.961,-83.008,19.043
1789995818.045297,5.859,-71.777,-70.312,10.742
1789995818.049160,-6.348,-70.312,-84.473,-8.789
1789995818.053023,-9.277,-77.148,-88.867,-3.906
1789995818.057399,-4.395,-63.477,-72.754,-3.418
1789995818.061263,-25.391,-72.754,-78.125,-9.766
1789995818.065126,-22.461,-78.125,-84.961,-21.484
1789995818.068990,-20.020,-60.547,-80.566,-47.852
1789995818.072853,-40.039,-63.477,-69.336,-50.293
1789995818.076716,-48.340,-61.035,-71.777,-40.527
1789995818.080580,-66.406,-47.363,-65.918,-66.406
1789995818.084444,-87.402,-44.434,-67.871,-90.820
1789995818.088307,-106.445,-60.547,-52.734,-108.398
1789995818.092170,-120.605,-41.016,-37.109,-127.930
1789995818.096034,-125.488,9.766,-43.457,-134.277
1789995818.099897,-138.184,20.020,-20.508,-132.324
1789995818.104228,-138.672,10.254,-9.766,-134.277
1789995818.108092,-137.207,-5.371,-30.273,-153.809
1789995818.111955,-148.926,-11.719,-31.738,-162.598
1789995818.115819,-176.758,-13.184,-18.555,-169.922
1789995818.119683,-178.711,-16.602,-20.020,-167.480
1789995818.123547,-136.230,1.465,-17.578,-148.926
1789995818.127410,-118.164,0.000,-2.441,-125.488
1789995818.131274,-145.996,-25.391,-16.602,-131.348
1789995818.135138,-158.203,-22.949,-48.340,-145.020
1789995818.139002,-123.535,-29.297,-36.133,-123.535
1789995818.142866,-108.398,-53.223,-38.574,-101.562
1789995818.146729,-120.605,-68.848,-58.105,-97.656
1789995818.150997,-95.215,-68.359,-48.340,-84.473
1789995818.154861,-70.801,-63.965,-51.758,-77.637
1789995818.158725,-64.453,-84.961,-71.289,-62.988
1789995818.162589,-67.383,-81.543,-76.660,-64.941
1789995818.166453,-61.523,-70.801,-66.895,-61.523
1789995818.170317,-40.527,-81.055,-67.383,-35.645
1789995818.174181,-22.461,-89.355,-87.402,-20.508
1789995818.178045,-25.391,-90.332,-92.773,-10.742
1789995818.181909,-28.320,-97.656,-88.867,-23.926
1789995818.185773,-25.879,-105.957,-85.938,-19.531
1789995818.189637,-6.836,-92.285,-86.426,-6.348
1789995818.193501,12.207,-92.285,-81.543,-3.418
1789995818.198077,0.000,-91.797,-88.379,3.906
1789995818.201941,0.000,-84.473,-62.012,10.742
1789995818.205806,0.000,-108.398,-74.219,7.812
1789995818.209671,0.000,-110.352,-111.328,9.277
1789995818.213535,0.000,-102.539,-92.773,4.395
1789995818.217400,0.000,-96.680,-94.238,-0.977
1789995818.221264,0.000,-102.539,-103.516,3.418
1789995818.225129,0.000,-100.586,-91.309,17.578
1789995818.228993,0.000,-84.961,-93.750,-1.465
1789995818.232858,0.000,-89.844,-86.914,-16.113
1789995818.236722,0.000,-104.492,-95.703,6.348
1789995818.240587,0.000,-104.980,-111.816,11.719
1789995818.245107,13.672,-98.145,-103.027,13.672
1789995818.248972,-1.465,-110.352,-111.328,14.160
1789995818.252837,-38.086,-106.445,-115.234,-23.438
1789995818.256702,-16.602,-103.516,-116.211,-18.555
1789995818.260567,2.930,-111.328,-98.145,21.484
1789995818.264432,-15.625,-95.703,-95.703,-6.348
1789995818.268297,-8.789,-93.262,-106.445,-22.949
1789995818.272162,2.441,-108.887,-104.004,7.324
1789995818.276027,20.996,-101.562,-71.777,16.113
1789995818.279892,16.602,-100.586,-83.496,11.230
1789995818.283757,20.996,-111.816,-103.516,12.695
1789995818.287622,26.855,-103.516,-78.125,24.902
1789995818.292106,21.484,-86.426,-68.848,48.828
1789995818.295972,26.855,-76.660,-58.594,47.363
1789995818.299837,12.207,-82.520,-81.055,20.508
1789995818.303703,5.859,-78.613,-90.332,5.371
1789995818.307568,5.371,-77.148,-83.008,6.348
1789995818.311433,-14.648,-96.680,-98.145,-7.324
1789995818.315299,-31.250,-108.887,-100.586,-20.020
1789995818.319164,-45.898,-89.844,-83.984,-32.227
1789995818.323030,-21.973,-71.289,-84.961,-12.695
1789995818.326895,-27.832,-74.219,-94.238,1.953
1789995818.330760,-61.523,-94.727,-91.797,-33.691
1789995818.334626,-61.035,-84.473,-93.262,-42.969
1789995818.339064,-31.738,-50.781,-72.754,-25.391
1789995818.342929,-51.270,-45.410,-58.594,-48.340
1789995818.346795,-118.652,-42.969,-60.547,-90.820
1789995818.350661,-112.305,-37.109,-42.480,-93.750
1789995818.354527,-107.910,-30.273,-46.875,-112.305
1789995818.358393,-119.141,-16.113,-57.617,-111.816
1789995818.362258,-134.766,-0.488,-45.410,-124.023
1789995818.366124,-153.809,-3.906,-35.156,-149.414
1789995818.369990,-159.668,-13.184,-13.672,-132.812
1789995818.373856,-154.785,-9.277,-12.695,-135.254
1789995818.377722,-155.273,-4.883,-25.391,-159.180
1789995818.381587,-173.828,-12.695,-19.043,-152.832
1789995818.385965,-172.852,-20.508,-11.719,-153.320
1789995818.389831,-161.133,-27.344,-23.438,-146.484
1789995818.393697,-144.531,-27.344,-27.344,-120.117
1789995818.397563,-135.254,-30.273,-16.113,-118.652
1789995818.401429,-113.770,-14.160,-26.367,-109.375
1789995818.405296,-107.910,-33.691,-47.852,-100.586
1789995818.409162,-141.113,-77.148,-70.312,-114.746
1789995818.413028,-126.953,-86.426,-81.543,-116.699
1789995818.416894,-98.633,-71.777,-73.730,-92.773
1789995818.420760,-95.703,-64.453,-73.730,-74.219
1789995818.424626,-74.219,-81.543,-66.406,-65.430
1789995818.428492,-61.035,-104.492,-60.059,-52.734
1789995818.432846,-69.824,-84.473,-82.520,-53.711
1789995818.436712,-64.453,-37.109,-94.238,-50.293
1789995818.440578,-45.410,-100.586,-94.727,-43.945
1789995818.444445,-31.738,-127.441,-94.727,-27.344
1789995818.448311,-30.273,-100.586,-93.750,-20.996
1789995818.452178,-28.809,-92.773,-96.191,-23.438
1789995818.456044,-15.625,-104.980,-91.309,-2.441
1789995818.459911,-7.324,-108.887,-95.215,2.930
1789995818.463777,-0.977,-103.516,-101.074,-7.812
1789995818.467643,-9.766,-93.750,-70.312,-21.973
1789995818.471510,-7.812,-95.703,-75.684,-5.859
1789995818.475376,5.859,-108.398,-106.934,19.043
1789995818.479664,-4.395,-108.887,-95.703,15.137
1789995818.483530,-15.137,-114.746,-87.402,2.930
1789995818.487397,-19.043,-109.375,-91.797,0.000
1789995818.491264,-17.090,-106.445,-100.098,4.395
1789995818.495130,-7.812,-104.004,-96.680,4.395
1789995818.498997,-4.395,-97.168,-86.426,3.418
1789995818.502864,3.418,-65.918,-93.750,0.977
1789995818.506731,16.113,-52.734,-83.008,11.230
1789995818.510597,13.672,-115.723,-84.473,31.738
1789995818.514464,1.465,-111.816,-95.703,16.113
1789995818.518331,11.230,-94.727,-91.797,21.484
1789995818.522197,21.484,-86.914,-96.680,37.598
1789995818.526467,29.785,-85.449,-90.332,33.203
1789995818.530334,18.066,-101.074,-91.309,24.902
1789995818.534201,10.254,-105.957,-99.609,4.395
1789995818.538068,19.531,-92.773,-95.703,0.000
1789995818.541935,20.020,-93.750,-88.867,27.344
1789995818.545802,23.926,-98.633,-94.727,30.273
1789995818.549669,10.742,-94.238,-89.355,13.672
1789995818.553536,-3.418,-92.773,-84.473,18.555
1789995818.557403,8.301,-95.703,-69.824,26.367
1789995818.561270,18.555,-85.938,-72.266,18.066
1789995818.565137,11.719,-84.961,-98.633,11.719
1789995818.569004,0.488,-92.773,-92.285,3.418
1789995818.573207,-0.488,-88.867,-87.891,9.766
1789995818.577074,22.461,-88.379,-84.473,27.344
1789995818.580941,16.602,-90.332,-84.473,14.160
1789995818.584808,-10.742,-83.496,-81.543,-2.930
1789995818.588675,-3.906,-70.801,-79.102,4.395
1789995818.592542,4.395,-80.566,-84.473,17.090
1789995818.596410,-3.418,-89.844,-97.656,-1.465
1789995818.600277,-19.043,-88.867,-80.566,-23.438
1789995818.604144,-17.578,-85.449,-78.613,-12.207
1789995818.608011,-1.953,-83.008,-106.445,1.465
1789995818.611878,-5.371,-87.402,-94.727,-9.766
1789995818.615746,-23.926,-89.844,-87.891,-13.672
1789995818.620221,-12.695,-82.520,-89.844,-7.324
1789995818.624089,-12.207,-82.031,-85.449,-6.348
1789995818.627956,-29.785,-77.637,-84.473,-10.254
1789995818.631824,-27.344,-77.637,-93.262,-28.809
1789995818.635691,-20.508,-83.008,-92.285,-32.227
1789995818.639559,-28.320,-77.148,-94.727,-32.715
1789995818.643426,-30.762,-64.941,-89.844,-30.762
1789995818.647294,-42.480,-68.359,-74.219,-37.109
1789995818.651161,-47.363,-73.242,-95.703,-49.316
1789995818.655029,-37.598,-73.242,-98.633,-34.180
1789995818.658896,-30.273,-65.430,-85.449,-30.273
1789995818.662764,-42.969,-51.758,-86.426,-49.316
1789995818.667185,-58.594,-44.922,-79.102,-53.223
1789995818.671053,-48.340,-50.293,-74.707,-57.617
1789995818.674921,-44.434,-50.293,-76.660,-54.688
1789995818.678789,-61.035,-50.293,-72.266,-63.477
1789995818.682657,-62.988,-48.828,-60.547,-63.965
1789995818.686525,-61.035,-34.668,-51.758,-64.941
1789995818.690392,-74.707,-37.598,-64.453,-83.008
1789995818.694261,-89.355,-39.062,-40.527,-96.680
1789995818.698128,-110.840,-27.832,-34.668,-109.863
1789995818.701996,-110.840,-18.555,-47.852,-110.840
1789995818.705864,-116.699,-8.301,-29.297,-111.328
1789995818.709732,-139.160,-5.371,-26.367,-128.906
1789995818.714136,-147.949,-5.859,-17.578,-150.879
1789995818.718005,-167.480,-4.883,-18.555,-162.598
1789995818.721873,-171.875,-9.277,-17.090,-166.504
1789995818.725741,-162.109,-10.254,-13.184,-148.926
1789995818.729609,-177.246,-18.555,-14.160,-152.344
1789995818.733478,-180.664,-23.926,-21.484,-163.574
1789995818.737346,-154.297,-13.672,-21.973,-149.902
1789995818.741214,-129.883,-2.930,-9.766,-150.391
1789995818.745082,-118.652,-1.465,-24.902,-142.090
1789995818.748950,-135.254,-19.043,-32.715,-138.672
1789995818.752819,-143.555,-32.715,-30.273,-143.066
1789995818.756687,-111.816,-33.203,-37.109,-125.000
1789995818.761034,-85.449,-36.133,-38.086,-101.562
1789995818.764903,-85.938,-41.992,-43.457,-110.352
1789995818.768771,-99.609,-50.781,-51.758,-115.234
1789995818.772640,-83.984,-56.641,-54.688,-89.844
1789995818.776509,-45.410,-60.059,-59.082,-62.500
1789995818.780377,-49.805,-69.336,-71.289,-58.594
1789995818.784245,-48.340,-74.707,-77.148,-56.152
1789995818.788114,-25.879,-78.125,-66.406,-36.133
1789995818.791983,-11.719,-84.473,-63.965,-20.020
1789995818.795851,-5.371,-94.727,-82.520,-17.090
1789995818.799720,-18.066,-94.238,-86.914,-29.785
1789995818.803588,-6.836,-83.984,-90.820,-21.484
1789995818.808209,2.930,-94.238,-100.586,-4.883
1789995818.812078,-0.488,-102.539,-105.957,0.000
1789995818.815947,-7.812,-99.121,-106.445,-7.812
1789995818.819816,-7.812,-100.098,-108.398,-2.441
1789995818.823685,15.625,-96.191,-105.469,20.020
1789995818.827554,26.855,-93.262,-100.586,19.043
1789995818.831423,20.020,-102.051,-95.703,11.230
1789995818.835292,26.855,-107.422,-87.891,7.812
1789995818.839161,32.715,-104.492,-92.773,10.254
1789995818.843030,28.320,-105.957,-107.910,18.555
1789995818.846899,22.949,-110.352,-108.398,10.742
1789995818.850768,10.742,-110.352,-112.305,4.883
1789995818.855015,28.320,-105.957,-105.469,20.020
1789995818.858884,39.062,-101.562,-95.703,43.457
1789995818.862753,14.648,-98.145,-98.633,38.086
1789995818.866623,7.324,-98.633,-110.352,14.648
1789995818.870492,26.855,-98.633,-109.375,15.137
1789995818.874361,44.434,-99.121,-91.797,34.180
1789995818.878230,36.621,-99.121,-91.797,33.203
1789995818.882099,35.156,-93.750,-104.004,29.785
1789995818.885969,34.180,-98.633,-95.703,21.973
1789995818.889838,21.973,-112.305,-99.121,19.043
1789995818.893707,25.391,-105.469,-99.121,31.250
1789995818.897576,28.320,-83.496,-90.332,37.109
1789995818.901816,20.996,-74.219,-88.379,32.227
1789995818.905685,23.438,-85.449,-87.891,23.438
1789995818.909555,38.574,-87.402,-101.074,27.344
1789995818.913424,28.809,-84.961,-103.027,17.090
1789995818.917294,16.113,-99.609,-96.680,7.812
1789995818.921163,18.066,-94.727,-90.332,11.719
1789995818.925032,32.715,-87.402,-83.984,25.391
1789995818.928902,33.203,-95.215,-93.262,30.273
1789995818.932771,10.254,-90.332,-98.145,0.488
1789995818.936641,0.000,-84.473,-102.051,-7.812
1789995818.940510,23.926,-95.703,-93.262,26.855
1789995818.944380,28.809,-86.914,-89.844,31.250
1789995818.948550,13.672,-76.172,-95.215,8.301
1789995818.952420,19.043,-86.914,-93.750,2.930
1789995818.956290,16.602,-83.984,-86.426,8.789
1789995818.960159,20.508,-71.777,-85.449,20.508
1789995818.964029,12.207,-75.195,-91.309,-3.418
1789995818.967898,-19.531,-91.797,-92.773,-23.926
1789995818.971768,3.418,-91.797,-100.586,1.465
1789995818.975638,31.250,-87.891,-100.586,-2.441
1789995818.979507,28.809,-78.125,-86.914,-10.254
1789995818.983377,20.996,-63.477,-75.195,7.324
1789995818.987247,7.324,-69.824,-81.543,-1.465
1789995818.991116,14.160,-70.801,-88.379,1.953
1789995818.995558,14.648,-75.684,-91.797,-7.324
1789995818.999428,-13.184,-89.355,-86.426,-16.113
1789995819.003298,-13.184,-87.402,-79.102,-2.441
1789995819.007168,9.766,-72.754,-80.078,4.883
1789995819.011038,8.789,-74.219,-80.078,1.953
1789995819.014908,-12.695,-91.309,-96.191,-8.789
1789995819.018777,-31.250,-91.309,-79.590,-19.531
1789995819.022647,-25.391,-78.613,-80.078,-18.555
1789995819.026517,-5.859,-83.496,-100.098,-4.395
1789995819.030387,-15.625,-84.961,-87.891,-11.230
1789995819.034257,-28.320,-75.195,-87.402,-22.461
1789995819.038127,-14.648,-84.473,-76.172,-18.555
1789995819.042533,-15.137,-101.074,-75.195,-1.465
1789995819.046403,-16.113,-80.078,-81.055,4.883
1789995819.050274,-6.836,-61.523,-72.754,-18.555
1789995819.054144,-20.996,-78.613,-78.125,-39.062
1789995819.058014,-32.715,-96.191,-89.844,-32.227
1789995819.061884,-32.227,-94.727,-70.801,-23.926
1789995819.065755,-37.109,-80.566,-80.566,-31.250
1789995819.069625,-31.250,-72.266,-103.027,-31.738
1789995819.073495,-20.996,-81.055,-87.891,-18.555
1789995819.077366,-24.902,-83.984,-83.984,-18.066
1789995819.081236,-30.762,-73.730,-86.914,-26.367
1789995819.085106,-33.691,-79.590,-78.125,-30.762
1789995819.089452,-23.926,-78.613,-76.172,-24.414
1789995819.093322,-23.438,-69.336,-79.102,-20.020
1789995819.097193,-36.133,-84.473,-77.148,-39.062
1789995819.101063,-44.434,-87.402,-70.801,-38.574
1789995819.104934,-43.945,-79.590,-77.148,-31.250
1789995819.108804,-38.086,-81.543,-70.801,-49.316
1789995819.112675,-29.297,-90.820,-77.637,-45.410
1789995819.116546,-20.020,-88.867,-86.426,-29.785
1789995819.120416,-28.809,-74.219,-73.242,-27.344
1789995819.124287,-38.086,-83.984,-80.566,-21.973
1789995819.128157,-23.926,-66.895,-79.102,-24.414
1789995819.132028,-25.879,-59.082,-70.312,-34.180
1789995819.136337,-12.695,-73.730,-55.176,-21.973
1789995819.140208,-3.418,-62.988,-62.988,-13.672
1789995819.144079,-29.785,-69.336,-78.613,-29.297
1789995819.147949,-37.598,-79.102,-76.660,-21.484
1789995819.151820,-43.457,-75.684,-72.266,-29.297
1789995819.155691,-30.273,-83.496,-70.801,-33.203
1789995819.159562,-21.484,-83.496,-96.191,-28.809
1789995819.163433,-38.086,-83.984,-100.586,-38.574
1789995819.167303,-48.828,-83.496,-81.543,-37.109
1789995819.171174,-41.992,-85.938,-81.055,-29.785
1789995819.175045,-28.320,-84.473,-83.496,-19.043
1789995819.178916,-20.020,-78.613,-84.473,-20.508
1789995819.183203,-33.691,-79.102,-81.055,-32.227
1789995819.187074,-44.434,-75.684,-83.008,-39.062
1789995819.190945,-18.066,-64.941,-85.449,-26.855
1789995819.194816,-23.926,-83.008,-88.379,-30.273
1789995819.198687,-28.809,-103.027,-80.078,-27.344
1789995819.202558,12.695,-54.688,-49.805,3.906
1789995819.206429,-5.371,-78.125,-60.547,-14.160
1789995819.210300,-47.852,-108.887,-112.305,-39.551
1789995819.214171,-62.012,-83.496,-132.324,-54.688
1789995819.218042,-45.898,-69.824,-98.633,-47.363
1789995819.221913,-14.648,-98.633,-84.961,-34.668
1789995819.225784,6.836,-82.031,-70.312,-10.254
1789995819.230021,4.395,-32.715,-77.148,7.812
1789995819.233893,-41.016,-63.477,-115.234,-33.203
1789995819.237764,-66.895,-83.008,-109.863,-58.594
1789995819.241635,-49.316,-72.754,-77.148,-47.852
1789995819.245507,-31.250,-71.777,-73.730,-36.133
1789995819.249378,-41.992,-72.266,-54.688,-30.762
1789995819.253249,-47.363,-61.035,-39.062,-20.020
1789995819.257120,-55.664,-80.566,-76.660,-27.344
1789995819.260991,-20.020,-75.684,-59.082,-18.066
1789995819.264863,-10.742,-67.383,-50.293,-13.184
1789995819.268734,-45.898,-89.355,-78.613,-38.574
1789995819.272605,-42.969,-83.984,-83.496,-45.898
1789995819.276807,-34.180,-86.426,-82.520,-33.691
1789995819.280679,-21.484,-94.238,-81.055,-20.508
1789995819.284550,-23.438,-78.613,-57.129,-22.461
1789995819.288422,-33.203,-67.871,-64.453,-20.508
1789995819.292293,-22.461,-78.613,-93.262,-10.254
1789995819.296165,-22.461,-73.242,-81.543,-20.020
1789995819.300036,-29.297,-63.477,-69.336,-26.855
1789995819.303907,-28.320,-76.172,-63.965,-15.137
1789995819.307779,-19.531,-70.312,-66.406,-7.812
1789995819.311650,-21.484,-76.660,-72.754,-10.254
1789995819.315522,-30.762,-85.449,-67.871,-17.578
1789995819.319393,-33.203,-78.613,-69.336,-15.625
1789995819.323556,-13.184,-61.523,-70.312,-17.090
1789995819.327428,9.766,-46.387,-43.945,13.672
1789995819.331299,-31.250,-68.848,-58.105,9.766
1789995819.335171,-47.852,-81.055,-42.480,-17.578
1789995819.339042,-33.691,-74.707,-37.109,-13.672
1789995819.342914,-35.156,-88.379,-84.473,-23.926
1789995819.346786,-45.410,-91.797,-83.984,-35.156
1789995819.350657,-61.523,-79.102,-84.473,-50.781
1789995819.354529,-32.715,-68.848,-82.031,-32.715
1789995819.358401,-11.230,-56.641,-54.688,0.000
1789995819.362272,-23.926,-61.523,-51.758,-10.254
1789995819.366144,-33.691,-62.500,-71.289,-23.926
1789995819.370561,-34.668,-54.199,-67.871,-17.090
1789995819.374433,-22.461,-66.406,-66.895,-9.766
1789995819.378304,-29.785,-70.801,-57.129,-22.461
1789995819.382176,-43.457,-65.918,-65.918,-37.598
1789995819.386048,-46.387,-72.266,-84.473,-47.852
1789995819.389920,-34.180,-70.801,-70.312,-33.691
1789995819.393792,-12.207,-62.988,-70.801,-11.719
1789995819.397664,-27.344,-61.035,-70.801,-15.137
1789995819.401536,-59.570,-74.219,-75.684,-39.062
1789995819.405408,-61.035,-68.848,-80.078,-57.129
1789995819.409280,-42.480,-62.988,-87.402,-49.316
1789995819.413152,-40.527,-73.242,-96.680,-39.551
1789995819.417531,-45.898,-78.125,-88.379,-41.504
1789995819.421403,-31.250,-69.824,-62.500,-28.320
1789995819.425276,-7.324,-47.363,-64.453,0.000
1789995819.429148,-24.414,-66.406,-91.797,-25.391
1789995819.433020,-66.895,-92.773,-94.238,-53.223
1789995819.436892,-65.918,-68.848,-88.867,-55.176
1789995819.440764,-41.992,-57.617,-89.355,-47.852
1789995819.444637,-39.062,-76.660,-101.562,-51.758
1789995819.448509,-26.855,-73.242,-84.961,-41.504
1789995819.452381,-23.926,-59.082,-63.965,-26.367
1789995819.456253,-37.109,-75.684,-83.008,-45.898
1789995819.460125,-41.504,-93.750,-94.238,-42.480
1789995819.464518,-43.457,-82.031,-77.148,-37.598
1789995819.468390,-50.781,-68.359,-81.543,-55.176
1789995819.472263,-40.039,-62.500,-95.703,-42.969
1789995819.476135,-21.484,-58.594,-89.844,-28.320
1789995819.480008,-44.922,-62.988,-98.145,-44.922
1789995819.483880,-56.152,-83.984,-90.820,-55.176
1789995819.487753,-26.855,-82.520,-76.172,-35.645
1789995819.491625,-19.043,-68.359,-75.684,-19.043
1789995819.495497,-32.715,-66.895,-80.566,-24.902
1789995819.499370,-46.387,-68.359,-81.055,-33.691
1789995819.503242,-44.434,-71.289,-87.402,-53.223
1789995819.507115,-5.859,-57.617,-96.191,-36.133
1789995819.511417,11.719,-62.988,-73.242,-12.207
1789995819.515290,-20.508,-65.430,-63.965,-26.367
1789995819.519162,-57.129,-63.477,-77.148,-59.082
1789995819.523035,-51.270,-67.871,-63.965,-48.340
1789995819.526908,-43.945,-68.359,-63.477,-35.645
1789995819.530781,-56.152,-75.195,-75.195,-49.805
1789995819.534653,-49.805,-89.844,-60.547,-42.969
1789995819.538526,-33.203,-90.820,-49.316,-31.250
1789995819.542399,-28.809,-81.055,-51.758,-11.719
1789995819.546271,-31.738,-77.148,-49.805,-24.414
1789995819.550144,-31.738,-67.871,-53.711,-32.715
1789995819.554017,-44.922,-67.871,-43.945,-34.668
1789995819.558299,-43.945,-71.777,-55.176,-35.156
1789995819.562172,-42.480,-68.359,-68.848,-23.926
1789995819.566045,-46.387,-73.242,-54.199,-24.902
1789995819.569918,-51.270,-83.008,-63.477,-39.062
1789995819.573791,-53.711,-80.078,-70.801,-46.875
1789995819.577664,-47.852,-69.336,-67.383,-43.945
1789995819.581537,-41.016,-76.172,-63.477,-43.945
1789995819.585410,-41.504,-73.730,-60.547,-39.551
1789995819.589283,-36.621,-63.965,-60.059,-36.621
1789995819.593156,-24.414,-66.895,-55.664,-30.273
1789995819.597029,-25.391,-63.477,-56.641,-31.250
1789995819.600902,-43.945,-67.383,-56.152,-40.527
1789995819.605130,0.000,-88.867,-57.617,-39.062
1789995819.609003,0.000,-73.730,-67.871,-5.371
1789995819.612876,0.000,-58.105,-66.406,-13.184
1789995819.616749,0.000,-70.801,-74.707,-58.105
1789995819.620622,0.000,-59.570,-68.359,-50.293
1789995819.624495,0.000,-56.152,-65.430,-41.504
1789995819.628368,0.000,-68.848,-80.566,-48.828
1789995819.632241,0.000,-74.219,-85.938,-66.895
1789995819.636115,0.000,-83.008,-80.566,-83.496
1789995819.639988,0.000,-87.402,-78.613,-65.430
1789995819.643861,0.000,-76.172,-72.266,-58.105
1789995819.647734,0.000,-63.965,-66.406,-68.848
1789995819.651930,-77.637,-68.359,-71.289,-83.984
1789995819.655804,-55.176,-56.641,-71.289,-75.195
1789995819.659677,-51.758,-50.293,-46.387,-61.035
1789995819.663550,-77.148,-65.918,-46.875,-81.055
1789995819.667423,-95.215,-61.035,-71.777,-92.773
1789995819.671297,-86.914,-38.086,-57.617,-83.008
1789995819.675170,-86.426,-30.273,-51.270,-82.031
1789995819.679044,-106.445,-34.668,-48.340,-94.238
1789995819.682917,-125.488,-27.832,-43.457,-114.746
1789995819.686790,-129.883,-26.367,-36.133,-134.277
1789995819.690663,-121.582,-13.672,-31.250,-134.277
1789995819.694537,-148.438,-13.672,-37.109,-156.250
1789995819.698718,-158.691,-10.254,-25.879,-180.176
1789995819.702592,-154.785,-3.418,-21.484,-174.805
1789995819.706465,-155.762,-16.602,-23.438,-156.250
1789995819.710339,-149.902,-29.297,-20.508,-147.949
1789995819.714212,-135.742,-24.902,-19.531,-149.902
1789995819.718086,-150.391,-33.203,-30.273,-150.879
1789995819.721959,-148.926,-45.410,-49.805,-137.207
1789995819.725832,-127.930,-51.758,-51.270,-130.859
1789995819.729706,-128.418,-51.270,-50.781,-122.559
1789995819.733579,-118.164,-46.387,-49.316,-118.164
1789995819.737453,-93.750,-57.129,-47.852,-93.262
1789995819.741326,-70.312,-62.012,-49.805,-59.570
1789995819.745701,-58.105,-70.312,-50.293,-44.434
1789995819.749574,-61.035,-75.684,-53.223,-43.945
1789995819.753448,-36.621,-60.547,-58.105,-41.016
1789995819.757322,-17.578,-51.758,-63.477,-27.832
1789995819.761195,-47.852,-68.359,-85.449,-40.039
1789995819.765069,-45.898,-74.707,-96.191,-63.477
1789995819.768943,-41.504,-76.660,-74.219,-59.082
1789995819.772817,-26.367,-77.148,-78.613,-13.672
1789995819.776690,-2.930,-77.637,-92.773,-0.488
1789995819.780564,-20.996,-93.750,-91.797,-18.066
1789995819.784438,-21.973,-91.309,-94.238,-14.648
1789995819.788311,-8.789,-79.590,-93.750,-15.137
1789995819.792661,-13.672,-88.379,-100.098,-17.090
1789995819.796535,-22.949,-95.703,-111.816,-40.039
1789995819.800409,-35.645,-88.867,-108.398,-36.133
1789995819.804283,-37.109,-78.613,-104.980,-29.785
1789995819.808157,-4.883,-83.984,-104.980,-22.461
1789995819.812031,-7.324,-86.426,-101.562,-4.883
1789995819.815905,-15.625,-82.031,-102.539,-11.719
1789995819.819779,-19.531,-93.750,-84.473,-20.020
1789995819.823653,6.348,-90.332,-86.914,-6.836
1789995819.827527,32.715,-76.660,-109.863,14.648
1789995819.831401,-3.418,-83.984,-97.656,-4.395
1789995819.835275,-6.836,-79.102,-83.008,-4.395
1789995819.839587,-20.020,-85.938,-99.609,-9.766
1789995819.843461,-27.832,-90.820,-103.516,-6.836
1789995819.847336,5.371,-77.637,-77.637,12.207
1789995819.851210,-7.324,-85.938,-84.961,-4.395
1789995819.855084,-20.508,-91.797,-97.656,-8.301
1789995819.858958,5.859,-79.590,-91.309,5.859
1789995819.862832,4.395,-77.637,-95.215,1.953
1789995819.866707,-12.695,-84.473,-96.191,-27.832
1789995819.870581,-19.531,-83.008,-94.238,-22.461
1789995819.874455,-20.996,-92.285,-111.816,-9.766
1789995819.878329,-4.395,-93.262,-107.422,1.953
1789995819.882203,11.230,-76.660,-87.891,9.766
1789995819.886466,-16.602,-85.938,-94.238,-20.508
1789995819.890340,-20.996,-88.379,-105.957,-25.879
1789995819.894214,-0.488,-75.684,-95.703,-10.254
1789995819.898089,-26.855,-86.914,-97.168,-25.879
1789995819.901963,-36.133,-80.566,-95.215,-29.297
1789995819.905838,-5.371,-70.801,-93.262,-8.301
1789995819.909712,-2.930,-76.660,-97.168,-8.789
1789995819.913586,-5.859,-86.426,-86.914,-20.508
1789995819.917461,6.836,-76.660,-76.172,-3.418
1789995819.921335,-10.254,-79.590,-101.074,-30.273
1789995819.925210,-28.809,-83.984,-100.586,-43.945
1789995819.929084,-32.227,-64.453,-86.914,-33.203
1789995819.933320,-43.945,-84.473,-87.402,-39.062
1789995819.937195,5.859,-68.359,-57.617,6.348
1789995819.941069,43.945,-31.738,-40.039,42.969
1789995819.944944,-15.137,-57.617,-81.543,-3.906
1789995819.948818,-73.730,-93.750,-110.840,-65.430
1789995819.952693,-48.828,-82.031,-96.680,-57.129
1789995819.956568,-12.695,-77.148,-95.215,-31.738
1789995819.960442,-32.715,-103.516,-111.816,-41.992
1789995819.964317,-44.434,-93.750,-98.145,-42.480
1789995819.968191,-33.203,-84.473,-69.336,-29.785
1789995819.972066,-33.691,-85.938,-74.707,-24.902
1789995819.975941,-20.508,-75.684,-88.867,-6.348
1789995819.980149,-11.719,-62.012,-65.918,9.277
1789995819.984023,-1.465,-48.340,-46.875,14.648
1789995819.987898,-2.441,-70.801,-57.617,3.906
1789995819.991773,-17.090,-88.867,-79.590,-17.090
1789995819.995648,-15.137,-78.125,-81.543,-23.438
1789995819.999522,3.906,-49.805,-51.270,-2.441
1789995820.003397,-21.973,-78.613,-74.707,-10.742
1789995820.007272,-28.809,-96.191,-96.680,-13.672
1789995820.011147,-2.930,-73.242,-65.918,8.789
1789995820.015021,46.875,-40.039,-4.395,59.082
1789995820.018896,45.410,-24.902,-13.184,60.059
1789995820.022771,-46.875,-74.219,-79.102,-30.273
1789995820.026952,-89.844,-110.840,-127.441,-79.102
1789995820.030827,-43.945,-67.871,-114.258,-34.180
1789995820.034702,-3.906,-35.645,-49.805,12.207
1789995820.038576,-33.691,-80.078,-74.219,-17.578
1789995820.042451,-62.500,-94.238,-117.676,-57.617
1789995820.046326,-36.621,-68.359,-94.727,-42.969
1789995820.050201,-10.254,-58.594,-62.012,-6.836
1789995820.054076,-49.316,-91.797,-104.492,-40.039
1789995820.057951,-41.504,-83.984,-107.910,-54.688
1789995820.061826,-0.977,-76.172,-69.824,-16.602
1789995820.065701,9.766,-75.195,-45.898,4.395
1789995820.069576,-8.301,-58.105,-50.781,-17.578
1789995820.073704,8.789,-61.523,-79.590,-2.441
1789995820.077579,32.715,-40.527,-68.359,10.254
1789995820.081454,-24.902,-46.387,-60.547,-33.203
1789995820.085329,-56.152,-58.105,-73.242,-49.805
1789995820.089204,-40.527,-74.219,-79.590,-38.086
1789995820.093079,-27.832,-77.148,-67.871,-15.137
1789995820.096954,-37.598,-59.082,-56.152,-15.625
1789995820.100829,-71.289,-93.262,-70.312,-54.688
1789995820.104704,-59.570,-110.352,-76.172,-53.711
1789995820.108579,-24.902,-94.238,-58.105,-15.137
1789995820.112454,-36.133,-91.309,-50.293,-29.785
1789995820.116329,-54.688,-72.266,-51.758,-44.922
1789995820.120688,-41.992,-63.965,-68.359,-25.879
1789995820.124563,-37.109,-83.008,-71.777,-19.043
1789995820.128438,-52.734,-83.008,-68.359,-29.785
1789995820.132313,-42.480,-73.730,-64.453,-23.926
1789995820.136189,-20.508,-75.684,-61.035,-16.602
1789995820.140064,-42.969,-96.191,-94.727,-41.016
1789995820.143939,-71.777,-101.074,-111.328,-65.430
1789995820.147815,-83.984,-103.516,-91.797,-80.078
1789995820.151690,-91.797,-110.840,-86.426,-88.379
1789995820.155565,-79.590,-111.816,-100.098,-72.266
1789995820.159441,-56.152,-98.633,-85.449,-55.176
1789995820.163316,-38.574,-83.496,-68.848,-52.246
1789995820.167633,-23.926,-68.359,-70.801,-42.480
1789995820.171508,-36.133,-83.496,-74.707,-40.527
1789995820.175384,-60.059,-100.098,-97.168,-50.293
1789995820.179259,-39.062,-78.613,-89.355,-53.711
1789995820.183135,-27.344,-79.102,-77.637,-48.340
1789995820.187010,-57.129,-101.562,-94.727,-61.523
1789995820.190886,-40.527,-107.910,-99.609,-58.105
1789995820.194761,-37.598,-97.168,-91.309,-45.410
1789995820.198637,-58.594,-85.938,-88.379,-58.105
1789995820.202512,-43.945,-84.961,-88.379,-44.434
1789995820.206388,-50.293,-89.355,-104.980,-33.203
1789995820.210263,-52.246,-84.961,-94.727,-39.551
1789995820.214548,-45.410,-68.359,-88.379,-41.016
1789995820.218423,-50.293,-75.684,-83.008,-43.945
1789995820.222299,-38.574,-87.402,-77.148,-41.016
1789995820.226175,-21.484,-70.312,-82.031,-28.809
1789995820.230051,-26.367,-64.941,-62.988,-10.254
1789995820.233926,-46.875,-84.961,-60.547,-25.391
1789995820.237802,-39.062,-87.402,-94.727,-38.574
1789995820.241678,-12.695,-71.289,-82.520,-18.066
1789995820.245553,-13.672,-79.102,-72.754,-15.137
1789995820.249429,-39.062,-89.355,-93.750,-49.805
1789995820.253305,-40.039,-72.754,-105.469,-77.148
1789995820.257180,-15.625,-58.594,-88.379,-61.523
1789995820.261434,-16.113,-68.848,-90.332,-67.383
1789995820.265310,-26.855,-74.219,-73.730,-76.660
1789995820.269186,-47.363,-71.777,-69.824,-68.848
1789995820.273062,-40.039,-64.941,-77.637,-45.898
1789995820.276938,-23.926,-75.195,-74.707,-37.598
1789995820.280814,-25.391,-71.289,-80.566,-37.109
1789995820.284690,-30.273,-41.992,-62.012,-34.180
1789995820.288566,-74.707,-69.824,-87.891,-40.039
1789995820.292442,-61.035,-72.266,-72.754,-17.090
1789995820.296318,-34.668,-61.523,-37.598,-11.230
1789995820.300194,-69.336,-87.891,-67.871,-49.805
1789995820.304069,-87.402,-94.727,-59.570,-60.547
1789995820.308284,-50.781,-73.242,-62.988,-36.133
1789995820.312160,-39.551,-68.359,-100.098,-29.297
1789995820.316036,-78.125,-89.844,-88.379,-50.293
1789995820.319912,-74.219,-104.004,-78.125,-56.152
1789995820.323788,-45.410,-91.797,-80.566,-52.734
1789995820.327665,-25.879,-75.195,-86.426,-45.410
1789995820.331541,-35.156,-78.125,-81.543,-55.664
1789995820.335417,-32.715,-69.336,-76.660,-45.410
1789995820.339293,-29.297,-77.637,-84.473,-40.527
1789995820.343169,-52.246,-100.098,-91.309,-62.012
1789995820.347045,-52.246,-96.680,-86.426,-63.477
1789995820.350921,-34.668,-84.473,-81.543,-45.898
1789995820.355105,-5.371,-58.105,-48.828,-10.254
1789995820.358981,-22.461,-79.590,-68.848,-31.250
1789995820.362857,-62.012,-96.680,-100.586,-78.613
1789995820.366734,-37.598,-54.688,-62.012,-38.574
1789995820.370610,-54.688,-74.707,-80.566,-52.734
1789995820.374486,-80.078,-102.051,-107.910,-84.473
1789995820.378362,-57.617,-87.402,-86.426,-56.152
1789995820.382239,-69.336,-87.402,-88.379,-54.199
1789995820.386115,-73.730,-84.473,-67.871,-58.105
1789995820.389991,-56.641,-93.750,-66.895,-49.316
1789995820.393867,-52.246,-93.750,-89.844,-41.992
1789995820.397743,-51.758,-66.406,-67.871,-51.758
1789995820.401904,-67.871,-84.961,-80.566,-66.895
1789995820.405781,-66.406,-89.355,-92.285,-62.012
1789995820.409657,-38.086,-76.660,-80.566,-40.527
1789995820.413533,-38.086,-83.008,-79.590,-48.828
1789995820.417410,-62.988,-85.938,-72.754,-64.453
1789995820.421286,-14.648,-62.500,-46.875,-27.344
1789995820.425162,9.766,-71.289,-61.035,-6.348
1789995820.429039,-45.898,-97.168,-91.309,-51.758
1789995820.432915,-58.105,-78.125,-88.379,-66.895
1789995820.436791,-40.527,-72.266,-92.285,-53.711
1789995820.440668,-40.039,-71.289,-98.145,-41.992
1789995820.444544,-64.453,-81.543,-93.262,-56.641
1789995820.448663,-78.125,-85.938,-90.332,-75.195
1789995820.452540,-78.125,-82.520,-98.145,-73.242
1789995820.456416,-53.711,-73.730,-66.406,-35.156
1789995820.460293,-22.949,-58.105,-39.551,-11.230
1789995820.464169,-46.387,-62.012,-78.125,-40.039
1789995820.468046,-54.199,-69.824,-77.637,-38.574
1789995820.471922,-47.363,-82.031,-77.148,-32.227
1789995820.475799,-58.594,-81.055,-94.727,-53.711
1789995820.479675,-65.918,-90.820,-97.168,-71.777
1789995820.483552,-61.035,-87.891,-83.984,-48.340
1789995820.487428,-34.668,-63.965,-75.684,-3.906
1789995820.491305,-16.113,-66.895,-50.781,-0.488
1789995820.495650,-30.273,-62.988,-57.129,-22.461
1789995820.499527,-75.684,-68.848,-107.910,-50.293
1789995820.503404,-68.359,-81.055,-104.980,-60.059
1789995820.507280,-34.180,-81.543,-83.008,-27.344
1789995820.511157,-35.156,-75.684,-77.637,-25.391
1789995820.515034,-56.641,-71.777,-72.266,-44.922
1789995820.518911,-71.289,-91.309,-85.449,-60.059
1789995820.522787,-53.223,-88.867,-84.473,-49.316
1789995820.526664,-37.109,-71.777,-59.570,-39.062
1789995820.530541,-47.852,-76.660,-69.336,-56.152
1789995820.534417,-51.758,-69.824,-91.309,-42.969
1789995820.538294,-36.621,-62.012,-92.285,-32.227
1789995820.542592,-13.672,-51.758,-69.336,-15.137
1789995820.546468,-38.574,-72.754,-78.613,-35.156
1789995820.550345,-63.965,-85.449,-92.773,-69.824
1789995820.554222,-36.621,-57.129,-70.801,-51.270
1789995820.558099,-10.742,-57.129,-73.730,-26.855
1789995820.561976,-4.395,-62.500,-80.078,-15.625
1789995820.565853,-38.086,-66.406,-90.332,-45.898
1789995820.569730,-77.637,-91.309,-96.680,-74.707
1789995820.573607,-67.383,-75.684,-89.355,-55.176
1789995820.577484,-43.945,-62.500,-69.336,-33.691
1789995820.581361,-59.082,-74.707,-82.520,-56.152
1789995820.585238,-61.035,-70.801,-91.797,-59.570
1789995820.589530,-54.199,-75.195,0.000,-39.062
1789995820.593407,-26.855,-66.406,0.000,-21.973
1789995820.597284,-25.879,-41.992,0.000,-21.973
1789995820.601161,-52.246,-55.664,0.000,-38.086
1789995820.605039,-40.527,-76.172,0.000,-36.621
1789995820.608916,-19.043,-69.336,0.000,-26.367
1789995820.612793,-19.043,-57.617,0.000,-36.621
1789995820.616670,-36.133,-65.430,0.000,-58.105
1789995820.620547,-35.156,-67.383,0.000,-33.691
1789995820.624424,-26.855,-61.523,0.000,-18.555
1789995820.628301,-34.180,-70.801,0.000,-40.527
1789995820.632178,-50.293,-68.359,0.000,-54.199
1789995820.636480,0.000,-60.547,-68.848,-38.086
1789995820.640357,0.000,-77.148,-63.965,-28.320
1789995820.644235,0.000,-65.430,-83.496,-21.973
1789995820.648112,0.000,-41.504,-74.707,-11.230
1789995820.651989,0.000,-64.941,-78.125,-32.715
1789995820.655867,0.000,-75.195,-73.730,-63.477
1789995820.659744,0.000,-73.730,-73.730,-70.801
1789995820.663621,0.000,-75.195,-68.359,-48.340
1789995820.667499,0.000,-71.289,-60.547,-32.227
1789995820.671376,0.000,-63.965,-71.289,-26.367
1789995820.675253,0.000,-65.430,-72.266,-24.414
1789995820.679131,0.000,-53.711,-45.410,-24.902
1789995820.683347,-44.434,-65.430,-70.312,-46.387
1789995820.687225,-56.641,-83.984,-103.516,-62.988
1789995820.691102,-44.434,-73.242,-90.820,-41.504
1789995820.694980,-44.922,-62.500,-85.938,-45.898
1789995820.698857,-57.129,-54.688,-85.938,-49.805
1789995820.702734,-48.828,-62.988,-92.285,-52.734
1789995820.706612,-39.551,-64.453,-81.055,-60.547
1789995820.710490,-32.227,-58.594,-68.359,-20.508
1789995820.714367,-39.062,-55.176,-72.266,-22.949
1789995820.718244,-38.574,-61.523,-57.617,-41.504
1789995820.722122,-33.203,-68.848,-70.801,-36.133
1789995820.725999,-38.574,-69.336,-108.887,-41.504
1789995820.730186,-41.992,-66.895,-85.938,-34.180
1789995820.734064,-47.363,-61.035,-74.219,-40.039
1789995820.737942,-51.758,-70.312,-87.402,-32.227
1789995820.741819,-42.969,-70.801,-73.730,-22.949
1789995820.745697,-39.062,-71.777,-76.660,-35.645
1789995820.749574,-48.340,-62.988,-80.078,-37.598
1789995820.753452,-46.875,-58.105,-73.730,-30.273
1789995820.757329,-33.691,-62.988,-62.500,-7.324
1789995820.761207,-35.156,-56.641,-63.965,-21.484
1789995820.765085,-54.199,-53.223,-92.285,-46.387
1789995820.768962,-54.199,-50.781,-83.008,-40.039
1789995820.772840,-32.227,-62.012,-83.984,-31.250
1789995820.776984,-46.875,-70.312,-97.168,-40.527
1789995820.780862,-44.434,-59.570,-75.684,-42.480
1789995820.784739,-38.574,-68.359,-72.754,-44.434
1789995820.788617,-48.340,-73.242,-79.590,-42.480
1789995820.792495,-29.297,-61.523,-72.754,-33.691
1789995820.796373,-31.738,-65.918,-85.938,-41.016
1789995820.800251,-51.270,-80.078,-68.359,-64.941
1789995820.804128,-52.246,-86.426,-85.449,-63.965
1789995820.808006,-35.645,-77.637,-95.215,-45.898
1789995820.811884,-41.504,-67.383,-82.031,-53.711
1789995820.815762,-63.965,-85.938,-83.008,-62.012
1789995820.819639,-41.992,-95.215,-67.871,-20.996
1789995820.823747,-23.926,-63.965,-75.684,-4.883
1789995820.827625,-46.387,-58.105,-84.961,-36.621
1789995820.831503,-59.570,-63.965,-92.773,-73.730
1789995820.835381,-74.219,-54.688,-94.238,-75.684
1789995820.839259,-79.590,-56.152,-83.984,-72.754
1789995820.843136,-62.988,-61.035,-98.633,-66.895
1789995820.847014,-50.781,-40.039,-109.375,-48.828
1789995820.850892,-53.711,-48.828,-104.980,-66.406
1789995820.854770,-56.152,-55.176,-122.559,-89.844
1789995820.858648,-44.922,-50.781,-126.953,-81.543
1789995820.862526,-33.691,-54.199,-119.629,-62.988
1789995820.866403,-44.434,-46.875,-118.164,-70.312
1789995820.870724,-24.414,-44.434,-105.957,-55.664
1789995820.874602,-10.254,-47.363,-96.680,-38.086
1789995820.878480,-15.625,-45.410,-98.145,-39.062
1789995820.882359,-14.160,-34.668,-78.125,-47.852
1789995820.886236,-28.320,-41.016,-72.266,-56.641
1789995820.890115,-27.344,-46.387,-92.773,-31.738
1789995820.893993,-28.809,-52.734,-90.820,-29.785
1789995820.897871,-34.668,-55.176,-84.961,-49.805
1789995820.901749,-26.855,-47.363,-81.543,-51.270
1789995820.905627,-16.113,-50.781,-78.613,-31.738
1789995820.909505,-14.160,-50.293,-82.520,-14.648
1789995820.913383,-25.879,-62.500,-76.172,-29.785
1789995820.917681,-40.039,-64.941,-76.660,-38.574
1789995820.921560,-35.645,-61.035,-66.406,-46.875
1789995820.925438,-25.391,-60.547,-82.031,-41.504
1789995820.929316,-21.484,-51.270,-104.980,-41.016
1789995820.933194,-35.645,-55.176,-89.844,-48.340
1789995820.937073,-25.879,-51.270,-81.543,-36.133
1789995820.940951,-20.996,-64.941,-83.984,-29.785
1789995820.944829,-36.133,-65.430,-94.727,-39.551
1789995820.948707,-39.551,-61.035,-91.309,-47.852
1789995820.952585,-41.992,-63.477,-94.238,-44.922
1789995820.956464,-38.086,-60.547,-95.215,-28.809
1789995820.960342,-36.621,-64.453,-78.613,-25.879
1789995820.964646,-37.598,-54.199,-85.938,-29.297
1789995820.968525,-53.223,-60.059,-86.426,-32.227
1789995820.972403,-41.504,-82.031,-72.266,-24.902
1789995820.976282,-24.902,-79.102,-75.195,-31.738
1789995820.980160,-51.270,-64.941,-79.102,-47.363
1789995820.984039,-67.871,-74.707,-76.172,-52.734
1789995820.987917,-53.223,-75.195,-74.707,-53.223
1789995820.991795,-42.969,-73.242,-80.078,-27.832
1789995820.995674,-51.758,-71.289,-77.637,-17.090
1789995820.999552,-77.637,-75.195,-66.895,-32.227
1789995821.003431,-78.613,-81.543,-78.613,-41.504
1789995821.007309,-56.641,-84.473,-95.703,-27.832
1789995821.011567,-44.922,-85.449,-81.543,-33.203
1789995821.015445,-59.570,-79.102,-83.008,-48.828
1789995821.019324,-54.688,-79.590,-88.379,-47.363
1789995821.023203,-32.227,-78.125,-72.754,-32.715
1789995821.027081,-36.133,-82.520,-77.148,-36.133
1789995821.030960,-33.203,-80.566,-99.609,-37.109
1789995821.034838,-32.227,-71.289,-86.426,-34.668
1789995821.038717,-70.312,-81.055,-71.777,-70.801
1789995821.042596,-76.172,-79.590,-70.312,-62.500
1789995821.046474,-68.359,-79.590,-77.148,-39.062
1789995821.050353,-71.289,-85.938,-79.102,-63.477
1789995821.054231,-64.453,-90.820,-76.172,-52.734
1789995821.058429,-61.523,-98.633,-65.430,-36.621
1789995821.062308,-68.359,-96.191,-63.965,-46.387
1789995821.066187,-67.871,-89.355,-69.824,-48.340
1789995821.070065,-61.523,-88.379,-69.824,-49.805
1789995821.073944,-45.898,-92.285,-66.895,-26.367
1789995821.077823,-50.781,-97.656,-78.125,-36.133
1789995821.081702,-62.012,-87.891,-80.078,-57.129
1789995821.085580,-76.660,-94.727,-60.059,-45.898
1789995821.089459,-66.406,-88.867,-65.430,-28.809
1789995821.093338,-29.785,-90.332,-61.035,-27.832
1789995821.097217,-31.738,-93.750,-62.012,-31.250
1789995821.101095,-31.250,-65.430,-55.176,-25.879
1789995821.105255,-33.691,-59.082,-46.387,-39.062
1789995821.109134,-56.152,-65.430,-61.035,-44.922
1789995821.113013,-74.219,-76.660,-71.289,-71.289
1789995821.116892,-89.355,-68.359,-72.266,-85.449
1789995821.120771,-91.797,-64.453,-53.223,-73.242
1789995821.124650,-85.938,-72.266,-56.641,-76.172
1789995821.128529,-99.121,-56.152,-34.668,-92.285
1789995821.132407,-118.164,-33.203,-20.020,-104.980
1789995821.136286,-106.445,-24.414,-30.762,-105.957
1789995821.140165,-109.863,-20.020,-16.602,-119.629
1789995821.144044,-152.832,-11.719,-24.902,-143.555
1789995821.147923,-189.453,-5.859,-29.297,-191.406
1789995821.152068,-200.195,0.488,-23.438,-213.379
1789995821.155947,-206.543,0.977,-12.207,-206.055
1789995821.159826,-227.539,0.000,-19.531,-225.098
1789995821.163705,-235.352,-2.441,-31.250,-241.699
1789995821.167584,-232.910,-15.625,-7.812,-237.305
1789995821.171463,-229.980,-6.836,5.859,-226.562
1789995821.175342,-229.492,-2.930,-18.555,-221.191
1789995821.179221,-249.512,8.301,-22.461,-233.887
1789995821.183100,-243.652,-4.395,-9.277,-233.887
1789995821.186979,-198.730,-8.789,12.207,-192.383
1789995821.190858,-187.012,15.625,6.836,-185.059
1789995821.194736,-209.473,-5.371,-27.344,-208.008
1789995821.198848,-210.938,-31.250,-19.043,-196.289
1789995821.202727,-211.914,-51.758,-32.227,-195.312
1789995821.206606,-188.965,-41.016,-50.293,-170.898
1789995821.210485,-182.129,-63.477,-45.410,-162.598
1789995821.214364,-172.852,-83.496,-64.453,-162.109
1789995821.218243,-127.441,-59.570,-49.805,-116.699
1789995821.222122,-103.027,-74.219,-50.293,-103.516
1789995821.226001,-106.445,-83.008,-63.965,-92.285
1789995821.229880,-101.074,-76.172,-65.430,-75.195
1789995821.233760,-90.820,-77.637,-69.824,-77.637
1789995821.237639,-76.172,-83.496,-67.871,-61.035
1789995821.241518,-73.242,-99.121,-83.984,-60.547
1789995821.245599,-84.961,-103.516,-106.934,-70.801
1789995821.249478,-83.496,-95.703,-87.891,-71.777
1789995821.253357,-65.430,-96.680,-90.332,-55.664
1789995821.257236,-41.016,-96.191,-105.957,-25.879
1789995821.261116,-26.367,-88.379,-90.332,-21.973
1789995821.264995,-24.414,-83.496,-89.844,-14.160
1789995821.268874,-29.297,-81.543,-86.914,-9.766
1789995821.272753,-20.508,-98.145,-87.891,-9.277
1789995821.276632,-17.090,-108.887,-97.656,-3.418
1789995821.280511,-16.113,-89.844,-88.867,4.883
1789995821.284391,-21.973,-95.703,-101.562,-2.441
1789995821.288270,-13.672,-109.375,-104.492,-9.277
1789995821.292541,0.000,-111.816,-106.445,-2.930
1789995821.296420,-19.531,-108.887,-124.512,-8.301
1789995821.300300,-19.043,-96.680,-109.375,-6.348
1789995821.304179,13.184,-94.238,-109.375,3.906
1789995821.308059,21.484,-99.121,-120.117,16.113
1789995821.311938,17.578,-88.379,-114.258,17.090
1789995821.315817,-1.953,-102.539,-107.422,-9.277
1789995821.319696,13.184,-99.609,-107.910,2.441
1789995821.323576,28.320,-89.355,-98.633,30.273
1789995821.327455,8.301,-94.727,-107.422,12.207
1789995821.331335,-10.742,-89.844,-104.980,-5.371
1789995821.335214,-1.465,-81.543,-88.867,14.160
1789995821.339462,14.648,-87.402,-106.445,23.926
1789995821.343342,4.883,-107.910,-111.328,7.324
1789995821.347221,3.418,-105.469,-104.004,4.395
1789995821.351101,7.324,-92.285,-93.750,10.742
1789995821.354980,22.461,-83.496,-88.379,21.973
1789995821.358860,28.320,-82.520,-89.355,29.297
1789995821.362739,20.996,-87.891,-96.191,20.020
1789995821.366619,11.230,-81.055,-100.586,15.137
1789995821.370498,20.996,-80.566,-99.609,28.320
1789995821.374378,31.250,-87.402,-92.285,31.250
1789995821.378257,17.578,-85.938,-95.215,14.648
1789995821.382137,10.742,-86.914,-118.164,-3.418
1789995821.386335,5.859,-90.820,-110.840,0.977
1789995821.390215,13.672,-89.355,-97.168,27.832
1789995821.394095,25.879,-94.238,-94.727,20.996
1789995821.397974,0.000,-93.262,-88.379,-4.395
1789995821.401854,0.488,-67.871,-74.707,12.695
1789995821.405734,12.695,-77.148,-85.449,22.461
1789995821.409613,3.418,-100.098,-89.844,9.766
1789995821.413493,1.953,-91.797,-79.590,15.625
1789995821.417373,-19.531,-100.098,-83.496,1.465
1789995821.421252,-20.996,-100.098,-83.496,-6.836
1789995821.425132,-10.254,-86.426,-103.516,-9.277
1789995821.429012,-20.996,-89.355,-110.352,-25.391
1789995821.433223,-22.461,-92.285,-97.168,-21.484
1789995821.437103,-9.766,-88.867,-95.703,-19.043
1789995821.440983,2.930,-83.984,-97.168,-13.672
1789995821.444863,2.441,-83.984,-87.402,-2.930
1789995821.448743,-4.883,-77.148,-74.707,-6.836
1789995821.452623,-17.090,-90.332,-84.473,-12.207
1789995821.456502,-20.996,-99.121,-100.586,-15.137
1789995821.460382,-16.113,-94.238,-92.773,-6.836
1789995821.464262,-26.855,-99.121,-83.496,0.000
1789995821.468142,-11.719,-102.539,-85.449,20.020
1789995821.472022,23.926,-85.449,-89.355,43.457
1789995821.475901,-0.977,-59.082,-104.492,3.906
1789995821.480100,0.000,-62.988,-110.840,-36.133
1789995821.483980,0.000,-66.406,-114.258,-48.828
1789995821.487859,0.000,-71.777,-111.328,-47.363
1789995821.491740,0.000,-66.895,-107.910,-29.297
1789995821.495620,0.000,-51.758,-115.234,-35.156
1789995821.499499,0.000,-58.594,-111.328,-49.805
1789995821.503379,0.000,-67.383,-110.840,-59.082
1789995821.507259,0.000,-57.129,-134.277,-34.180
1789995821.511139,0.000,-50.293,-141.113,-27.832
1789995821.515019,0.000,-52.734,-132.812,-43.945
1789995821.518899,0.000,-59.082,-123.047,-51.270
1789995821.522779,0.000,-63.965,-117.188,-34.668
1789995821.526932,-7.812,-58.594,-107.910,-24.902
1789995821.530812,-21.973,-56.641,-110.352,-44.922
1789995821.534692,-20.020,-58.594,-115.723,-44.434
1789995821.538572,-20.508,-52.734,-111.816,-34.180
1789995821.542452,-22.461,-61.523,-103.027,-34.180
1789995821.546332,-28.809,-65.430,-115.723,-38.574
1789995821.550212,-38.574,-64.941,-115.723,-36.621
1789995821.554092,-34.668,-61.035,-107.910,-28.809
1789995821.557972,-22.949,-60.059,-112.793,-29.785
1789995821.561852,-17.090,-61.035,-104.980,-32.715
1789995821.565732,-32.227,-61.523,-96.680,-46.387
1789995821.569612,-54.199,-56.152,-92.285,-50.293
1789995821.573723,-35.645,-46.387,-83.008,-30.273
1789995821.577603,-12.695,-51.758,-86.914,-33.691
1789995821.581484,-54.688,-62.988,-88.379,-53.223
1789995821.585364,-57.129,-57.129,-74.219,-46.875
1789995821.589244,-41.016,-46.875,-99.121,-53.711
1789995821.593124,-64.941,-50.781,-104.492,-50.781
1789995821.597004,-66.895,-49.316,-87.402,-57.129
1789995821.600884,-66.406,-49.805,-83.984,-76.660
1789995821.604764,-64.453,-39.062,-75.684,-69.824
1789995821.608644,-62.500,-32.715,-73.242,-61.035
1789995821.612525,-82.520,-43.457,-64.453,-83.496
1789995821.616405,-104.492,-37.598,-57.129,-104.980
1789995821.620699,-89.844,-10.254,-57.617,-90.332
1789995821.624579,-98.145,-8.301,-34.668,-100.098
1789995821.628460,-125.488,-12.207,-37.109,-123.047
1789995821.632340,-145.996,5.859,-60.059,-141.113
1789995821.636220,-164.062,9.277,-53.223,-161.133
1789995821.640101,-160.645,19.531,-45.898,-157.715
1789995821.643981,-171.387,23.926,-34.180,-175.293
1789995821.647861,-196.777,13.672,-30.273,-203.613
1789995821.651742,-211.426,10.254,-24.902,-209.473
1789995821.655622,-202.637,21.484,-20.020,-187.500
1789995821.659503,-181.641,29.785,-25.391,-180.664
1789995821.663383,-170.410,10.742,-41.016,-202.637
1789995821.667649,-164.551,-24.902,-28.809,-179.688
1789995821.671530,-163.086,-25.879,-10.254,-147.461
1789995821.675410,-157.227,-2.441,-25.391,-139.648
1789995821.679290,-141.602,-11.230,-23.926,-135.254
1789995821.683171,-137.207,-18.066,-29.297,-139.648
1789995821.687051,-130.859,-24.414,-38.086,-119.629
1789995821.690932,-111.816,-39.551,-36.621,-95.703
1789995821.694812,-113.281,-56.152,-48.340,-103.516
1789995821.698693,-118.652,-72.266,-56.641,-97.168
1789995821.702573,-88.867,-64.941,-62.500,-73.730
1789995821.706454,-64.941,-58.594,-79.102,-67.383
1789995821.710334,-60.547,-64.453,-51.758,-51.270
1789995821.714575,-53.711,-67.383,-48.828,-44.922
1789995821.718456,-46.875,-78.613,-83.008,-52.246
1789995821.722337,-45.898,-101.562,-87.891,-58.105
1789995821.726217,-38.574,-108.398,-90.820,-37.598
1789995821.730098,-42.480,-109.863,-96.191,-34.180
1789995821.733979,-47.363,-95.215,-93.262,-39.062
1789995821.737859,-38.574,-84.473,-92.285,-15.625
1789995821.741740,-32.227,-93.750,-93.262,-2.930
1789995821.745620,-20.508,-90.332,-92.773,-4.883
1789995821.749501,-19.043,-90.820,-91.309,-14.160
1789995821.753382,-14.160,-106.445,-77.637,-11.719
1789995821.757262,-5.371,-100.586,-90.332,2.930
1789995821.761478,-13.672,-98.145,-103.516,3.906
1789995821.765359,-16.113,-105.469,-92.285,6.836
1789995821.769240,-5.371,-87.402,-89.844,3.906
1789995821.773120,-0.977,-87.891,-89.844,8.789
1789995821.777001,-8.301,-105.957,-94.727,-5.371
1789995821.780882,-11.719,-102.539,-97.656,-22.461
1789995821.784763,-15.625,-108.398,-97.168,-12.207
1789995821.788644,-25.391,-110.840,-97.168,-7.812
1789995821.792524,-12.695,-106.934,-77.148,3.418
1789995821.796405,-15.625,-95.703,-68.848,0.000
1789995821.800286,-19.043,-79.590,-84.473,-4.395
1789995821.804167,-11.719,-89.355,-79.590,7.324
1789995821.808365,-25.391,-98.145,-84.473,-6.836
1789995821.812246,-25.391,-90.820,-86.914,-29.297
1789995821.816127,-32.715,-82.031,-78.613,-36.133
1789995821.820008,-25.391,-76.660,-74.707,-22.949
1789995821.823888,-24.414,-81.055,-82.031,-18.066
1789995821.827769,-41.016,-75.195,-78.613,-41.992
1789995821.831650,-49.316,-57.129,-69.336,-62.012
1789995821.835531,-62.988,-53.223,-78.125,-58.105
