timestamp,TP9,AF7,AF8,TP10
1790598179.085340,0.000,0.000,-0.488,0.000
1790598179.089199,0.000,0.000,-1.953,-0.488
1790598179.093059,-0.977,-2.441,14.648,-0.488
1790598179.096918,2.441,4.395,-52.246,1.953
1790598179.100778,-13.184,-22.949,200.195,-8.789
1790598179.104637,-16.602,-58.594,172.852,7.324
1790598179.108497,-8.301,-48.828,-184.570,33.691
1790598179.112356,-4.395,-46.875,-56.152,10.742
1790598179.116216,-2.441,-48.828,0.000,-4.883
1790598179.120076,-10.254,-51.758,-9.766,-8.789
1790598179.123935,-2.930,-56.641,-20.996,-5.859
1790598179.127795,19.531,-64.941,-12.695,-4.883
1790598179.130790,1.465,-69.336,-0.977,-40.039
1790598179.134578,-33.203,-70.312,-5.371,-20.996
1790598179.138365,-21.973,-76.172,-13.672,14.648
1790598179.142153,3.418,-64.453,-7.812,3.418
1790598179.145940,-0.488,-52.734,12.207,-9.766
1790598179.149728,-25.879,-58.594,11.719,-2.930
1790598179.153515,-24.414,-53.223,-0.977,9.766
1790598179.157303,-6.348,-45.410,7.324,-9.766
1790598179.161091,13.672,-49.805,30.273,-42.480
1790598179.164878,-8.301,-49.316,32.715,-34.668
1790598179.168666,-16.113,-45.410,28.320,12.695
1790598179.172453,-3.906,-56.641,18.555,36.621
1790598179.173705,20.020,-62.500,14.648,-1.465
1790598179.177387,12.207,-61.523,19.531,-22.461
1790598179.181068,-15.625,-53.711,16.113,-10.742
1790598179.184750,-11.230,-51.270,6.836,28.809
1790598179.188432,12.695,-50.293,11.719,21.973
1790598179.192114,9.766,-47.852,13.184,-35.156
1790598179.195796,-24.414,-48.828,4.395,-46.387
1790598179.199478,-31.250,-53.711,12.695,-6.348
1790598179.203160,1.953,-52.734,16.602,11.230
1790598179.206841,2.930,-49.316,9.766,-22.949
1790598179.210523,-17.578,-58.105,0.000,-27.832
1790598179.214205,35.645,-52.734,-6.836,27.344
1790598179.214339,49.805,-49.805,10.742,49.316
1790598179.217922,-3.906,-60.059,28.320,19.531
1790598179.221506,-22.461,-54.199,28.320,-12.207
1790598179.225089,-8.301,-42.480,32.715,-0.977
1790598179.228672,9.766,-39.551,29.785,24.414
1790598179.232256,10.742,-40.039,28.809,-0.488
1790598179.235839,0.977,-42.480,25.879,-5.859
1790598179.239422,-6.836,-45.898,16.113,7.324
1790598179.243006,-3.418,-50.293,10.742,10.742
1790598179.246589,2.930,-47.363,6.348,14.160
1790598179.250172,-21.484,-52.734,19.043,-2.441
1790598179.253756,-30.273,-59.082,24.902,6.836
1790598179.260114,-8.301,-52.734,7.324,30.273
1790598179.263755,13.184,-42.969,0.488,24.902
1790598179.267396,18.555,-42.969,17.578,-10.742
1790598179.271038,4.883,-52.734,22.461,-10.254
1790598179.274679,-2.930,-66.406,9.277,4.395
1790598179.278320,-7.812,-70.801,-8.789,6.348
1790598179.281961,-8.301,-54.199,-10.742,29.785
1790598179.285602,-18.066,-46.875,-0.488,-3.418
1790598179.289243,-34.180,-51.758,-5.371,-10.254
1790598179.292885,-34.180,-60.059,-18.066,17.578
1790598179.296526,-13.184,-65.430,-16.113,-20.508
1790598179.300167,-4.883,-71.289,-18.555,-47.852
1790598179.302442,-26.367,-72.754,-24.414,-46.875
1790598179.306061,-28.809,-73.730,-14.648,-4.883
1790598179.309679,-11.230,-79.102,-21.484,-12.207
1790598179.313298,-17.090,-69.824,-13.184,-12.695
1790598179.316916,-25.879,-56.641,-5.859,26.367
1790598179.320534,-34.668,-49.316,-26.367,0.000
1790598179.324153,-39.551,-42.969,-29.297,-23.438
1790598179.327771,-15.625,-30.762,-23.926,-67.383
1790598179.331389,-43.945,-22.949,-23.926,-89.355
1790598179.335008,-61.523,-25.391,-31.738,-49.805
1790598179.338626,-25.391,-29.785,-49.805,-18.066
1790598179.342245,-7.324,-31.250,-60.059,-44.922
1790598179.346386,-35.156,-29.297,-53.711,-82.520
1790598179.350012,-42.480,-20.020,-55.176,-54.688
1790598179.353638,9.277,-5.371,-59.570,-7.324
1790598179.357263,6.348,-7.812,-48.340,-36.133
1790598179.360889,-38.086,-17.090,-41.992,-40.039
1790598179.364515,-37.109,-20.996,-56.152,-39.551
1790598179.368140,-19.043,-20.996,-62.500,-41.992
1790598179.371766,-24.414,-27.344,-58.105,-24.902
1790598179.375391,-47.363,-36.621,-52.734,-66.406
1790598179.379017,-39.062,-35.645,-62.500,-52.246
1790598179.382643,-9.766,-22.949,-64.941,-8.789
1790598179.386268,-0.488,-20.020,-41.016,7.324
1790598179.388125,21.484,-15.137,-22.949,0.977
1790598179.391730,14.648,-6.836,-13.184,-29.785
1790598179.395334,-14.648,-16.602,-15.137,-27.832
1790598179.398939,-2.930,-21.484,-31.738,-16.602
1790598179.402544,14.648,-20.020,-33.203,-28.320
1790598179.406148,-10.254,-40.039,-23.926,-43.457
1790598179.409753,-33.203,-53.711,-18.066,-37.109
1790598179.413357,-1.953,-45.410,-17.090,0.977
1790598179.416962,22.461,-42.480,-14.160,1.465
1790598179.420567,-27.832,-51.270,-3.418,-51.270
1790598179.424171,-56.152,-52.246,-2.930,-46.387
1790598179.427776,-19.043,-40.039,-7.324,-3.906
1790598179.429472,20.996,-36.621,4.395,2.441
1790598179.433057,13.672,-39.551,17.090,-26.855
1790598179.436642,-10.254,-41.504,-1.465,-25.879
1790598179.440227,7.812,-41.992,-14.648,4.883
1790598179.443811,30.762,-41.504,-6.836,18.066
1790598179.447396,37.109,-41.992,0.000,-2.441
1790598179.450981,13.672,-44.922,-9.766,-12.695
1790598179.454565,12.207,-45.898,-13.184,14.160
1790598179.458150,11.719,-58.594,-10.254,47.852
1790598179.461735,4.395,-55.664,-9.277,6.836
1790598179.465320,7.324,-34.180,-0.977,-30.762
1790598179.468904,5.371,-24.902,9.766,2.441
1790598179.472650,11.719,-30.762,7.812,23.926
1790598179.476237,14.160,-41.992,4.395,-1.465
1790598179.479823,-2.441,-45.410,7.324,-28.809
1790598179.483409,-14.160,-45.410,7.324,-8.789
1790598179.486995,-4.395,-47.363,5.371,24.414
1790598179.490581,-1.465,-49.805,-7.812,17.090
1790598179.494168,-1.953,-51.758,-5.371,-32.227
1790598179.497754,-24.902,-57.617,-7.324,-42.480
1790598179.501340,-46.875,-53.711,-18.555,-20.508
1790598179.504926,-12.695,-46.875,-19.531,13.184
1790598179.508512,18.066,-49.316,-10.742,-3.418
1790598179.512099,2.930,-42.480,-13.184,-14.160
1790598179.515728,-32.715,-46.387,-18.066,-3.418
1790598179.519314,-27.344,-58.594,-19.531,13.672
1790598179.522901,4.883,-53.711,-20.020,11.230
1790598179.526487,2.930,-46.875,-9.766,-21.484
1790598179.530074,8.789,-43.457,-6.836,0.488
1790598179.533660,33.691,-43.457,-11.230,8.789
1790598179.537247,26.367,-49.805,-16.113,16.113
1790598179.540833,10.254,-38.574,-7.812,27.344
1790598179.544420,-12.207,-34.668,3.906,-23.438
1790598179.548007,-23.926,-59.570,-3.418,-38.086
1790598179.551593,-0.488,-70.312,-21.973,3.418
1790598179.555180,-5.371,-66.406,-16.113,-18.066
1790598179.559312,0.000,-67.871,-4.395,-50.293
1790598179.562903,0.000,-65.430,-9.277,-7.812
1790598179.566494,0.000,-56.152,-13.184,0.488
1790598179.570084,0.000,-58.105,-10.742,-23.438
1790598179.573675,0.000,-67.383,-7.324,-45.898
1790598179.577266,0.000,-64.453,-7.812,-23.438
1790598179.580856,0.000,-54.199,-9.277,34.180
1790598179.584447,0.000,-65.918,-2.930,9.277
1790598179.588038,0.000,-85.449,7.812,-57.129
1790598179.591628,0.000,-84.473,-14.160,-47.363
1790598179.595219,0.000,-74.707,-33.691,-3.418
1790598179.598810,0.000,-65.918,-22.461,-3.418
1790598179.604925,-29.785,-56.641,-13.184,-43.457
1790598179.608533,-45.898,-53.223,-14.160,-46.875
1790598179.612142,-55.176,-56.152,-19.531,-8.301
1790598179.615750,-35.645,-52.734,-16.113,-19.043
1790598179.619358,-9.766,-51.758,-3.418,-33.691
1790598179.622966,-17.090,-56.152,-0.488,-25.391
1790598179.626575,-31.250,-59.082,-10.742,0.488
1790598179.630183,-41.992,-66.406,-14.648,11.230
1790598179.633791,-28.320,-70.801,-2.441,-19.043
1790598179.637399,-20.996,-61.523,10.254,-39.551
1790598179.641008,-24.902,-52.246,9.766,-26.367
1790598179.644616,-10.254,-48.828,5.371,12.207
1790598179.648613,0.000,-55.176,-3.906,0.977
1790598179.652224,0.000,-51.270,-11.230,-14.160
1790598179.655834,0.000,-41.992,-10.742,-2.930
1790598179.659445,0.000,-46.875,-12.207,-3.418
1790598179.663056,0.000,-51.270,-9.766,10.254
1790598179.666667,0.000,-52.734,-10.742,0.000
1790598179.670277,0.000,-56.152,-10.742,-39.551
1790598179.673888,0.000,-62.988,-8.789,-19.043
1790598179.677499,0.000,-67.383,-24.902,10.742
1790598179.681110,0.000,-68.359,-32.227,-16.602
1790598179.684720,0.000,-68.848,-16.602,-36.621
1790598179.688331,0.000,-72.754,-11.230,-23.438
1790598179.694115,-37.109,-81.055,-25.391,-17.090
1790598179.697738,-2.441,-75.195,-31.738,-9.277
1790598179.701362,-13.672,-67.871,-22.949,-1.953
1790598179.704986,-25.879,-62.988,-20.020,-36.621
1790598179.708609,4.395,-56.152,-37.598,-9.277
1790598179.712233,13.672,-51.270,-38.574,25.879
1790598179.715857,-12.207,-49.316,-19.043,-11.230
1790598179.719480,-44.434,-55.664,-10.742,-21.973
1790598179.723104,-23.438,-60.059,-11.719,-8.789
1790598179.726728,17.578,-52.734,-11.230,4.395
1790598179.730351,20.020,-54.688,2.930,-20.996
1790598179.733975,-15.625,-68.848,-7.812,-44.922
1790598179.739660,-23.926,-70.312,-31.250,-15.625
1790598179.743295,2.930,-64.941,-16.602,28.809
1790598179.746930,-2.441,-61.523,4.395,28.809
1790598179.750566,-38.086,-50.781,3.418,-24.414
1790598179.754200,-52.246,-53.711,-5.859,-19.043
1790598179.757836,-49.316,-68.359,-23.438,12.207
1790598179.761471,-22.949,-62.988,-24.902,-7.812
1790598179.765106,-7.324,-62.500,-15.625,-13.184
1790598179.768741,-9.766,-63.477,-18.066,-1.465
1790598179.772376,-6.836,-50.293,-16.602,7.812
1790598179.776011,-5.859,-54.688,-15.137,-1.465
1790598179.779646,-24.902,-64.941,-18.555,-28.809
1790598179.785099,-62.500,-72.754,-25.879,-16.602
1790598179.788743,-58.594,-85.938,-34.180,-0.977
1790598179.792388,-41.992,-80.566,-30.762,-17.578
1790598179.796032,-35.156,-78.125,-20.020,-22.949
1790598179.799677,-47.852,-89.844,-23.438,-37.598
1790598179.803321,-56.152,-91.797,-41.992,-49.805
1790598179.806966,-18.555,-73.242,-45.898,-10.742
1790598179.810611,1.953,-64.941,-29.297,-13.184
1790598179.814255,-20.508,-64.941,-8.301,-25.391
1790598179.817900,-30.273,-54.199,-0.977,-13.672
1790598179.821544,-19.043,-60.059,-14.648,0.488
1790598179.825189,-8.301,-68.848,-19.043,2.441
1790598179.830576,-2.441,-59.082,-6.836,11.230
1790598179.834229,-28.809,-54.688,-11.230,11.230
1790598179.837883,-32.227,-75.684,-22.461,10.742
1790598179.841536,15.625,-84.961,-21.973,7.812
1790598179.845189,7.324,-71.777,-20.996,-20.508
1790598179.848842,-47.363,-66.895,-30.273,-40.527
1790598179.852495,-50.781,-69.336,-43.457,-22.949
1790598179.856148,-12.695,-67.871,-41.016,19.531
1790598179.859801,0.977,-61.035,-29.297,-13.184
1790598179.863454,-35.645,-71.289,-28.320,-67.383
1790598179.867108,-38.574,-78.613,-23.926,0.488
1790598179.870761,-33.691,-66.895,-17.090,40.527
1790598179.876072,-21.973,-62.500,-12.695,-5.859
1790598179.879733,-18.066,-64.941,-6.348,-22.461
1790598179.883394,-17.578,-68.848,-11.230,-16.602
1790598179.887055,0.000,-63.965,-19.531,2.930
1790598179.890715,-0.488,-62.500,-28.320,-11.230
1790598179.894376,-18.555,-62.988,-20.996,-32.715
1790598179.898037,-21.973,-58.594,-11.230,-30.273
1790598179.901698,3.418,-53.223,-21.973,-6.836
1790598179.905359,-7.324,-42.969,-10.742,23.926
1790598179.909019,-12.695,-50.293,2.441,0.000
1790598179.912680,-18.066,-66.895,-18.555,-34.668
1790598179.916341,-14.160,-66.406,-19.531,-2.930
1790598179.921633,11.230,-57.617,-11.719,0.000
1790598179.925301,-2.930,-68.359,-18.066,-36.621
1790598179.928969,-26.367,-74.707,-20.020,-40.039
1790598179.932637,-43.945,-64.453,-18.555,-22.949
1790598179.936305,-38.086,-63.477,-20.020,10.254
1790598179.939973,-4.883,-62.500,-7.324,-3.906
1790598179.943641,-3.906,-70.801,-10.254,-22.949
1790598179.947309,-20.996,-78.125,-19.531,-9.277
1790598179.950977,-32.227,-72.266,-12.695,-18.066
1790598179.954644,-7.324,-67.383,-20.508,-17.578
1790598179.958313,-1.465,-74.219,-19.043,-53.711
1790598179.961980,-34.180,-72.754,-10.254,-55.664
1790598179.967010,-42.969,-60.547,-14.648,-23.926
1790598179.970684,-41.016,-57.129,-25.391,-19.531
1790598179.974358,-25.879,-59.570,-29.297,-44.434
1790598179.978031,-26.855,-54.688,-29.785,-34.180
1790598179.981705,-32.715,-53.223,-34.180,-20.508
1790598179.985379,-21.973,-51.270,-27.832,10.254
1790598179.989052,-1.953,-49.316,-21.484,30.273
1790598179.992726,-6.836,-52.246,-13.672,-18.066
1790598179.996400,-20.508,-47.852,1.465,-28.809
1790598180.000073,-2.930,-38.574,-9.277,17.090
1790598180.003747,8.301,-47.852,-18.555,19.531
1790598180.007421,-7.812,-53.223,-3.418,-0.977
1790598180.012321,-25.879,-48.828,-3.906,-0.977
1790598180.015999,-15.137,-45.410,-19.531,6.836
1790598180.019677,12.695,-35.645,-17.578,23.438
1790598180.023356,18.555,-34.668,3.906,10.254
1790598180.027034,5.371,-35.645,22.949,3.418
1790598180.030713,16.602,-25.391,19.043,44.922
1790598180.034391,37.109,-14.160,8.301,65.430
1790598180.038070,43.457,-15.625,29.297,12.207
1790598180.041748,16.113,-18.555,33.203,-15.137
1790598180.045427,5.371,-20.996,15.137,3.906
1790598180.049105,21.484,-30.273,16.113,28.320
1790598180.052784,9.277,-45.898,13.184,-7.324
1790598180.059289,-17.090,-54.199,1.953,-46.875
1790598180.062979,-15.625,-52.734,-2.441,-8.301
1790598180.066668,-0.977,-52.246,-10.254,41.016
1790598180.070357,9.766,-48.828,-5.371,-1.465
1790598180.074046,5.371,-40.039,6.836,-33.691
1790598180.077735,-5.859,-45.898,2.930,-6.836
1790598180.081425,-11.719,-59.570,-12.207,-1.465
1790598180.085114,-15.137,-69.336,-25.879,-5.859
1790598180.088803,9.277,-60.547,-23.926,-25.391
1790598180.092492,-2.441,-60.059,-24.902,-46.875
1790598180.096181,-29.785,-64.453,-20.508,-33.691
1790598180.099871,-28.320,-59.082,-19.531,3.418
1790598180.105814,-11.719,-64.941,-15.625,-10.254
1790598180.109511,-9.277,-63.965,-5.371,-34.180
1790598180.113209,-27.344,-56.641,-10.742,-8.789
1790598180.116906,-25.391,-53.711,-23.438,10.742
1790598180.120604,6.348,-42.480,-12.695,12.207
1790598180.124301,0.488,-44.922,-11.719,3.906
1790598180.127998,-33.203,-60.059,-20.508,-15.625
1790598180.131696,-19.043,-52.246,-4.395,-15.625
1790598180.135393,12.207,-38.574,0.488,5.859
1790598180.139091,-8.789,-50.293,1.953,-21.973
1790598180.142788,-62.012,-70.312,-3.906,-48.340
1790598180.146485,-47.852,-68.359,-15.137,-30.273
1790598180.152370,-2.930,-56.152,-15.137,-11.230
1790598180.156075,-12.207,-61.523,-18.555,-23.438
1790598180.159780,-30.273,-60.059,-14.160,-32.715
1790598180.163485,-39.551,-66.895,-20.020,-32.715
1790598180.167190,-22.949,-70.801,-24.414,-2.441
1790598180.170895,-8.301,-66.406,-15.137,-1.465
1790598180.174599,-35.156,-73.242,-8.789,-30.273
1790598180.178304,-33.691,-71.289,-11.719,-24.902
1790598180.182009,-10.742,-53.711,-15.625,32.715
1790598180.185714,-4.883,-53.223,-7.324,6.836
1790598180.189419,-27.832,-68.359,-14.648,-68.359
1790598180.193124,-47.363,-74.219,-34.668,-46.875
1790598180.198749,0.000,-66.895,-32.715,-19.043
1790598180.202461,0.000,-69.824,-23.926,-32.227
1790598180.206172,0.000,-83.008,-20.508,-41.504
1790598180.209883,0.000,-82.520,-23.926,-39.062
1790598180.213595,0.000,-88.379,-31.250,-18.066
1790598180.217306,0.000,-93.750,-32.715,-3.906
1790598180.221017,0.000,-92.773,-28.809,-44.922
1790598180.224729,0.000,-89.844,-34.668,-45.410
1790598180.228440,0.000,-85.938,-41.504,-19.043
1790598180.232152,0.000,-85.938,-43.457,-19.531
1790598180.235863,0.000,-92.773,-47.852,-47.852
1790598180.239574,0.000,-101.562,-44.922,-73.730
1790598180.246114,-70.801,-104.004,-47.363,-76.172
1790598180.249834,-44.922,-94.727,-58.594,-34.668
1790598180.253555,-14.648,-81.055,-59.570,-20.996
1790598180.257275,-20.996,-83.008,-45.410,-78.125
1790598180.260996,-34.180,-87.891,-40.527,-64.941
1790598180.264716,-42.969,-89.844,-53.711,-13.672
1790598180.268436,-42.969,-95.215,-48.340,-16.113
1790598180.272157,-22.461,-96.680,-36.621,-61.035
1790598180.275877,-33.691,-103.027,-38.086,-72.266
1790598180.279598,-51.758,-109.375,-48.828,-53.711
1790598180.283318,-46.875,-103.516,-50.781,-21.973
1790598180.287039,-41.016,-101.074,-36.133,-23.438
1790598180.292302,0.000,-96.680,-27.344,-76.660
1790598180.296027,0.000,-93.750,-34.668,-68.359
1790598180.299752,0.000,-100.098,-53.711,-11.230
1790598180.303478,0.000,-98.633,-52.246,-21.484
1790598180.307203,0.000,-91.309,-42.480,-53.711
1790598180.310928,0.000,-85.938,-41.992,-38.086
1790598180.314653,0.000,-75.195,-37.598,-19.531
1790598180.318378,0.000,-80.078,-38.574,-17.578
1790598180.322104,0.000,-86.426,-29.785,-56.152
1790598180.325829,0.000,-76.172,-17.090,-58.594
1790598180.329554,0.000,-76.172,-20.508,-4.395
1790598180.333279,0.000,-80.078,-22.461,8.789
1790598180.338464,-9.766,-82.520,-18.555,-63.477
1790598180.342193,-5.371,-80.078,-22.461,-69.336
1790598180.345923,7.812,-79.590,-27.832,-43.457
1790598180.349652,-0.977,-92.285,-26.855,-5.859
1790598180.353382,-10.742,-90.820,-28.809,-24.414
1790598180.357111,14.648,-75.195,-32.227,-56.641
1790598180.360841,29.297,-72.754,-25.391,-28.320
1790598180.364570,-5.859,-80.566,-25.391,-34.180
1790598180.368300,-19.531,-91.797,-20.996,-60.059
1790598180.372030,-15.625,-100.586,-17.090,-72.754
1790598180.375759,-18.555,-100.586,-24.902,-59.570
1790598180.379489,-9.766,-98.633,-26.855,-24.902
1790598180.384504,-14.648,-105.469,-24.902,-20.508
1790598180.388237,-16.113,-108.398,-27.344,-63.477
1790598180.391970,-24.414,-93.750,-23.926,-52.246
1790598180.395704,-8.301,-70.801,-15.625,-8.789
1790598180.399437,17.578,-74.707,-22.461,17.090
1790598180.403170,20.508,-90.332,-31.250,-29.785
1790598180.406903,-10.254,-94.238,-27.344,-63.477
1790598180.410637,-31.738,-96.191,-18.555,-40.039
1790598180.414370,-13.184,-82.031,-11.230,-27.344
1790598180.418103,0.000,-75.684,-6.348,-50.293
1790598180.421836,-0.488,-91.797,-18.555,-75.195
1790598180.425570,-29.297,-95.215,-31.250,-57.129
1790598180.431580,0.000,-92.773,-45.898,-10.742
1790598180.435319,0.000,-91.797,-50.781,-28.320
1790598180.439059,0.000,-84.473,-38.574,-84.473
1790598180.442798,0.000,-71.777,-24.902,-74.219
1790598180.446538,0.000,-71.777,-25.879,-39.551
1790598180.450277,0.000,-76.172,-34.668,-25.391
1790598180.454017,0.000,-78.613,-29.785,-41.992
1790598180.457757,0.000,-86.914,-34.180,-63.477
1790598180.461496,0.000,-91.797,-44.922,-45.410
1790598180.465236,0.000,-98.145,-47.852,-9.277
1790598180.468975,0.000,-107.422,-32.227,-51.270
1790598180.472715,0.000,-102.051,-27.344,-91.309
1790598180.478601,-38.574,-86.914,-36.133,-62.988
1790598180.482347,-28.320,-82.520,-35.645,-34.668
1790598180.486092,-25.879,-87.402,-24.414,-49.316
1790598180.489837,-29.785,-97.656,-23.926,-60.547
1790598180.493583,-23.438,-83.496,-35.645,-62.500
1790598180.497328,-17.090,-73.730,-50.781,-48.340
1790598180.501074,-1.953,-86.426,-45.898,-49.316
1790598180.504819,1.953,-90.820,-32.227,-77.637
1790598180.508564,-13.672,-85.938,-49.805,-62.500
1790598180.512310,-14.648,-73.730,-47.363,-0.488
1790598180.516055,-19.043,-67.383,-32.715,-26.855
1790598180.519800,-21.484,-78.613,-47.852,-72.754
1790598180.525441,0.000,-92.773,-65.918,-64.453
1790598180.529191,0.000,-89.355,-60.547,-38.086
1790598180.532942,0.000,-83.008,-49.805,-27.344
1790598180.536692,0.000,-92.773,-32.715,-42.969
1790598180.540442,0.000,-92.773,-21.484,-53.223
1790598180.544192,0.000,-80.078,-31.738,-25.879
1790598180.547943,0.000,-73.730,-38.574,-20.508
1790598180.551693,0.000,-78.613,-34.180,-41.016
1790598180.555443,0.000,-91.309,-30.762,-38.574
1790598180.559193,0.000,-89.844,-32.715,-42.969
1790598180.562944,0.000,-88.867,-30.273,-40.527
1790598180.566694,0.000,-94.727,-33.691,-37.598
1790598180.572076,-24.902,-95.215,-38.574,-67.383
1790598180.575830,-35.156,-96.680,-32.227,-67.383
1790598180.579584,-24.414,-93.262,-25.391,-35.156
1790598180.583339,-10.742,-86.914,-31.250,-12.695
1790598180.587093,-17.090,-86.914,-25.391,-39.062
1790598180.590847,-27.832,-83.496,-15.625,-56.152
1790598180.594602,-15.625,-80.078,-24.414,-28.320
1790598180.598356,8.301,-75.684,-41.016,-10.742
1790598180.602111,19.043,-70.801,-33.691,-28.809
1790598180.605865,-7.324,-73.242,-25.879,-54.688
1790598180.609619,-34.180,-73.242,-38.086,-30.273
1790598180.613374,-14.160,-70.801,-43.457,6.348
1790598180.618565,4.395,-67.871,-29.297,-19.531
1790598180.622323,-22.461,-63.477,-18.066,-63.477
1790598180.626081,-28.320,-72.754,-33.203,-53.711
1790598180.629839,-13.672,-84.961,-47.852,-36.133
1790598180.633597,-9.277,-73.730,-44.922,-33.203
1790598180.637355,-18.555,-67.871,-44.922,-47.852
1790598180.641113,-21.973,-70.312,-50.293,-52.734
1790598180.644871,-30.273,-76.660,-44.922,-32.715
1790598180.648629,-34.668,-82.031,-44.434,-31.738
1790598180.652386,-26.855,-80.566,-43.457,-47.363
1790598180.656144,-37.109,-79.102,-41.016,-62.012
1790598180.659902,-44.922,-85.449,-57.617,-34.668
1790598180.665176,-41.992,-87.402,-64.941,-15.137
1790598180.668938,-28.320,-84.473,-54.688,-66.895
1790598180.672699,-32.227,-89.355,-56.641,-69.336
1790598180.676461,-35.645,-90.820,-58.105,-38.086
1790598180.680222,-31.738,-86.914,-54.199,-41.504
1790598180.683984,-11.719,-83.496,-68.848,-54.688
1790598180.687745,-10.742,-73.242,-66.895,-59.570
1790598180.691507,-55.176,-67.871,-48.828,-50.781
1790598180.695268,-70.801,-73.730,-34.180,-47.363
1790598180.699030,-48.340,-73.730,-34.180,-31.250
1790598180.702791,-19.531,-69.336,-36.133,-48.828
1790598180.706553,-35.645,-75.684,-40.039,-63.965
1790598180.711547,-47.363,-81.543,-41.504,-53.223
1790598180.715312,-10.742,-75.195,-37.598,-30.762
1790598180.719076,-2.441,-71.777,-32.227,-20.996
1790598180.722840,-34.668,-77.148,-31.738,-64.453
1790598180.726605,-32.227,-77.148,-27.344,-61.523
1790598180.730369,-24.902,-71.289,-30.762,-22.461
1790598180.734133,-20.020,-63.477,-41.016,-18.066
1790598180.737898,-18.066,-69.336,-35.156,-32.227
1790598180.741662,-24.414,-80.566,-37.109,-64.941
1790598180.745427,-25.391,-87.402,-46.387,-48.828
1790598180.749191,-38.086,-97.656,-38.574,-23.438
1790598180.752955,-20.508,-88.379,-18.555,-49.805
1790598180.758769,-20.020,-79.102,-15.625,-44.922
1790598180.762538,-32.715,-79.102,-29.297,-22.949
1790598180.766307,-13.672,-79.102,-28.320,-23.438
1790598180.770076,-14.160,-84.961,-20.508,-52.734
1790598180.773845,-52.734,-90.332,-29.297,-78.613
1790598180.777614,-41.504,-93.750,-42.480,-46.875
1790598180.781383,-17.578,-88.379,-46.387,-16.113
1790598180.785152,-23.438,-87.402,-21.973,-16.113
1790598180.788921,-24.902,-94.727,-7.324,-36.133
1790598180.792690,-8.789,-95.703,-20.020,-58.105
1790598180.796459,-16.602,-91.309,-33.203,-54.199
1790598180.800228,-27.832,-88.867,-32.227,-46.875
1790598180.805844,-21.973,-89.355,-27.344,-62.500
1790598180.809617,-39.551,-91.309,-40.527,-64.941
1790598180.813390,-34.180,-87.891,-42.480,-40.039
1790598180.817163,-21.484,-78.125,-26.367,-28.809
1790598180.820936,-6.836,-69.336,-20.996,-40.039
1790598180.824709,2.441,-69.824,-27.344,-52.734
1790598180.828482,1.465,-73.730,-30.762,-27.832
1790598180.832255,-9.766,-81.543,-27.344,1.465
1790598180.836028,2.441,-85.938,-21.484,-22.949
1790598180.839801,-13.184,-81.543,-41.016,-55.664
1790598180.843574,-55.664,-89.355,-41.504,-43.457
1790598180.847347,-49.316,-91.309,-34.180,-36.621
1790598180.852830,-25.391,-84.961,-37.109,-50.293
1790598180.856607,-36.133,-90.820,-37.109,-63.965
1790598180.860384,-39.551,-85.449,-32.715,-52.734
1790598180.864160,-24.414,-75.684,-25.391,-32.715
1790598180.867937,-5.859,-72.266,-31.250,-46.387
1790598180.871714,-22.461,-76.172,-35.645,-50.781
1790598180.875490,-41.504,-80.078,-34.180,-47.852
1790598180.879267,-37.109,-84.961,-40.039,-49.316
1790598180.883044,-10.254,-82.520,-50.293,-24.902
1790598180.886820,0.488,-71.289,-38.574,-44.922
1790598180.890597,-50.781,-69.824,-26.855,-61.035
1790598180.894374,-54.199,-71.777,-26.367,-29.785
1790598180.899802,-21.484,-68.848,-15.625,-15.137
1790598180.903582,-7.812,-63.965,-9.277,-30.273
1790598180.907362,-21.484,-71.777,-18.555,-48.340
1790598180.911142,-31.738,-84.473,-28.809,-35.156
1790598180.914922,-13.672,-75.684,-36.133,0.488
1790598180.918702,-4.395,-65.918,-30.273,-16.602
1790598180.922482,-22.461,-64.453,-17.578,-49.805
1790598180.926263,-40.527,-71.289,-24.902,-33.691
1790598180.930043,-18.555,-70.312,-38.574,4.395
1790598180.933823,-8.789,-65.430,-27.344,-13.184
1790598180.937603,-15.625,-67.383,-17.090,-52.246
1790598180.941383,-21.484,-70.312,-22.949,-46.387
1790598180.946690,-46.387,-83.008,-23.926,-41.016
1790598180.950473,-57.129,-86.914,-28.809,-42.969
1790598180.954256,-31.738,-85.938,-33.203,-56.641
1790598180.958039,-44.922,-99.121,-44.922,-65.918
1790598180.961823,-53.711,-96.191,-52.734,-28.809
1790598180.965606,-37.598,-87.402,-54.688,-20.996
1790598180.969389,-57.617,-86.426,-50.781,-62.012
1790598180.973172,-85.449,-81.055,-46.387,-68.359
1790598180.976956,-72.266,-82.520,-51.270,-61.523
1790598180.980739,-60.547,-80.078,-43.945,-43.457
1790598180.984522,-56.152,-83.984,-49.805,-40.527
1790598180.988305,-72.266,-89.355,-57.617,-72.266
1790598180.993534,-89.355,-88.867,-55.176,-84.473
1790598180.997320,-81.543,-98.633,-53.711,-64.453
1790598181.001106,-46.387,-96.191,-40.527,-36.621
1790598181.004892,-45.898,-91.797,-26.367,-35.156
1790598181.008678,-56.152,-92.773,-27.344,-63.477
1790598181.012464,-54.688,-88.867,-40.039,-49.316
1790598181.016250,-64.453,-73.242,-40.039,-20.508
1790598181.020036,-54.199,-63.477,-34.180,5.859
1790598181.023823,-54.688,-73.730,-34.668,-49.316
1790598181.027609,-37.598,-86.914,-42.969,-81.543
1790598181.031395,-21.973,-85.938,-55.176,-17.090
1790598181.035181,-41.992,-82.520,-49.805,-16.113
1790598181.040155,-77.637,-86.914,-40.527,-50.781
1790598181.043943,-69.336,-81.055,-39.062,-72.754
1790598181.047732,-22.949,-67.871,-36.133,-36.621
1790598181.051520,-5.371,-73.730,-36.621,-18.066
1790598181.055309,-36.133,-74.707,-32.227,-46.875
1790598181.059097,-74.707,-64.453,-30.273,-39.551
1790598181.062886,-62.988,-60.059,-32.227,-9.277
1790598181.066674,-32.715,-69.336,-34.668,-21.973
1790598181.070462,-27.344,-81.543,-21.484,-62.012
1790598181.074251,-38.086,-73.730,-15.625,-61.523
1790598181.078039,-36.621,-66.895,-27.344,-27.344
1790598181.081827,-21.484,-69.824,-33.203,-25.879
1790598181.086768,-33.203,-62.012,-20.996,-55.664
1790598181.090559,-47.852,-47.363,-13.672,-53.223
1790598181.094349,-47.363,-48.828,-16.113,-16.602
1790598181.098140,-56.152,-53.223,-15.625,13.184
1790598181.101930,-29.785,-59.570,-6.836,-7.812
1790598181.105721,-20.020,-63.965,2.441,-30.273
1790598181.109511,-27.832,-61.035,1.465,-21.973
1790598181.113302,2.441,-35.645,11.719,39.551
1790598181.117093,-3.418,-35.645,17.578,20.996
1790598181.120883,-33.691,-53.223,-0.488,-57.129
1790598181.124674,-38.086,-45.410,-18.555,-58.105
1790598181.128464,-23.438,-42.480,-17.578,-22.461
1790598181.133347,-2.441,-43.457,-10.254,-19.531
1790598181.137140,5.859,-42.480,-4.883,-32.227
1790598181.140932,-8.301,-46.875,-1.953,-17.090
1790598181.144725,-21.973,-58.105,-12.207,-26.855
1790598181.148517,-26.855,-62.012,-23.438,-21.973
1790598181.152310,-19.043,-62.500,-25.391,-2.930
1790598181.156103,-29.785,-66.406,-25.879,-30.762
1790598181.159895,-27.344,-60.547,-8.789,-35.156
1790598181.163688,-26.855,-53.223,-11.230,-3.418
1790598181.167480,-38.086,-62.012,-32.715,-14.160
1790598181.171273,-42.969,-70.801,-25.391,-57.617
1790598181.175066,-67.871,-81.543,-23.926,-56.152
1790598181.180479,-55.176,-87.891,-39.062,-28.809
1790598181.184274,-4.883,-84.961,-42.480,-30.762
1790598181.188070,-16.602,-85.449,-33.203,-60.547
1790598181.191865,-72.754,-79.102,-28.320,-41.016
1790598181.195661,-57.617,-76.172,-25.879,-12.207
1790598181.199456,-20.508,-71.289,-26.855,-19.531
1790598181.203252,-13.672,-68.848,-23.438,-14.160
1790598181.207047,-27.344,-75.684,-21.484,-50.781
1790598181.210843,-17.578,-74.707,-14.648,-46.387
1790598181.214638,-10.254,-67.383,-14.648,10.742
1790598181.218434,-29.297,-72.754,-22.461,-42.969
1790598181.222229,-35.156,-84.961,-32.227,-78.125
1790598181.227622,-55.664,-75.684,-24.902,-35.156
1790598181.231420,-49.805,-67.871,-3.906,-0.488
1790598181.235219,-23.926,-80.566,-0.977,-2.441
1790598181.239017,-35.156,-89.844,-8.789,-51.758
1790598181.242815,-43.457,-83.496,-15.137,-52.246
1790598181.246614,-35.645,-77.148,-20.508,-11.719
1790598181.250412,-39.062,-83.008,-30.273,-31.738
1790598181.254210,-42.480,-86.426,-26.855,-66.406
1790598181.258009,-38.574,-91.309,-32.227,-49.805
1790598181.261807,-43.457,-94.727,-41.992,-16.602
1790598181.265606,-49.805,-100.098,-33.691,-7.812
1790598181.269404,-45.898,-102.051,-34.180,-40.527
1790598181.274627,-56.152,-100.586,-39.062,-75.684
1790598181.278428,-78.613,-101.074,-39.551,-43.457
1790598181.282229,-56.641,-97.168,-38.574,-30.762
1790598181.286030,-9.766,-98.145,-24.902,-73.242
1790598181.289830,-13.672,-96.191,-20.996,-57.617
1790598181.293631,-65.918,-96.191,-36.133,-50.293
1790598181.297432,-83.984,-102.539,-51.270,-53.223
1790598181.301233,-53.223,-90.332,-47.363,-31.738
1790598181.305034,-62.500,-86.914,-47.852,-53.223
1790598181.308835,-88.379,-97.656,-53.223,-76.660
1790598181.312636,-66.895,-103.027,-51.758,-66.895
1790598181.316437,-32.715,-100.586,-53.711,-24.902
1790598181.321493,-34.180,-95.215,-43.457,-24.902
1790598181.325296,-70.312,-85.449,-36.133,-46.387
1790598181.329099,-78.613,-87.402,-41.016,-38.574
1790598181.332902,-54.688,-92.285,-50.781,-29.785
1790598181.336705,-26.367,-81.055,-40.527,-57.617
1790598181.340508,-16.113,-70.312,-23.438,-57.129
1790598181.344311,-28.809,-66.406,-22.949,-31.250
1790598181.348114,-26.367,-66.895,-33.203,-7.324
1790598181.351917,-20.508,-64.941,-45.898,-9.277
1790598181.355720,-26.367,-61.035,-39.551,-26.367
1790598181.359523,-55.664,-73.730,-42.480,-37.109
1790598181.363326,-77.637,-89.355,-50.781,-37.598
1790598181.368222,-51.270,-100.098,-36.621,-13.672
1790598181.372027,-49.805,-101.562,-28.320,-28.320
1790598181.375832,-48.340,-81.543,-28.320,-25.391
1790598181.379637,-38.574,-74.219,-35.156,-12.695
1790598181.383441,-18.066,-76.172,-38.086,-27.832
1790598181.387246,-11.230,-89.355,-39.062,-42.480
1790598181.391051,-48.340,-104.980,-52.246,-54.688
1790598181.394856,-59.082,-91.797,-50.293,-36.621
1790598181.398661,-58.594,-85.938,-38.086,-22.461
1790598181.402465,-42.480,-83.008,-27.832,-34.668
1790598181.406270,-34.668,-76.660,-28.320,-45.898
1790598181.410075,-61.523,-76.660,-35.156,-53.223
1790598181.414918,0.000,-86.426,-45.410,-37.598
1790598181.418725,0.000,-100.586,-53.223,-48.828
1790598181.422531,0.000,-96.191,-58.594,-84.961
1790598181.426337,0.000,-88.867,-52.734,-65.430
1790598181.430144,0.000,-100.586,-48.340,-24.902
1790598181.433951,0.000,-93.750,-50.781,-11.230
1790598181.437757,0.000,-82.031,-49.805,-41.504
1790598181.441564,0.000,-91.309,-64.453,-51.270
1790598181.445370,0.000,-99.121,-71.777,-49.316
1790598181.449177,0.000,-94.238,-71.777,-37.109
1790598181.452983,0.000,-92.285,-46.875,-37.109
1790598181.456789,0.000,-99.121,-31.250,-64.453
1790598181.461496,-84.473,-103.027,-41.016,-68.359
1790598181.465304,-60.547,-93.262,-46.875,-25.391
1790598181.469112,-38.574,-87.402,-43.945,-23.926
1790598181.472920,-50.781,-93.750,-41.992,-41.992
1790598181.476728,-64.941,-95.215,-41.016,-38.574
1790598181.480536,-35.156,-84.473,-46.387,-9.766
1790598181.484344,-9.766,-90.820,-54.688,-7.812
1790598181.488152,-28.809,-103.027,-45.898,-39.551
1790598181.491960,-67.871,-101.074,-38.574,-52.246
1790598181.495768,-46.387,-84.961,-33.203,-25.391
1790598181.499576,-27.832,-86.914,-35.156,-17.090
1790598181.503384,-44.434,-94.727,-35.156,-43.457
1790598181.508001,-54.688,-87.891,-25.391,-40.527
1790598181.511810,-43.457,-85.938,-30.762,-15.137
1790598181.515620,-27.344,-78.125,-30.273,-6.836
1790598181.519429,-14.160,-68.848,-22.949,-40.039
1790598181.523238,-53.711,-71.777,-29.297,-44.434
1790598181.527047,-65.430,-66.895,-34.668,-21.484
1790598181.530856,-12.207,-54.199,-28.320,10.254
1790598181.534666,-18.066,-58.105,-6.836,-15.137
1790598181.538475,-32.715,-63.477,2.930,-56.641
1790598181.542284,-36.133,-61.523,0.488,-18.555
1790598181.546093,-38.086,-68.359,-5.859,10.254
1790598181.549902,-25.879,-76.660,-10.742,-25.879
1790598181.555135,0.000,-82.031,-15.137,-61.035
1790598181.558947,0.000,-82.031,-21.484,-64.941
1790598181.562758,0.000,-79.102,-23.926,-35.645
1790598181.566570,0.000,-74.707,-21.484,-28.320
1790598181.570381,0.000,-62.012,-8.789,-37.109
1790598181.574192,0.000,-59.570,-16.113,-43.945
1790598181.578004,0.000,-65.918,-21.973,-40.039
1790598181.581815,0.000,-68.359,-3.906,-8.301
1790598181.585627,0.000,-80.566,-1.953,-29.785
1790598181.589438,0.000,-78.613,-12.695,-56.152
1790598181.593249,0.000,-71.777,-15.137,-50.293
1790598181.597061,0.000,-87.891,-20.996,-45.898
1790598181.600275,-34.668,-87.402,-30.273,-42.969
1790598181.604086,-68.848,-76.172,-41.016,-41.504
1790598181.607896,-61.523,-76.660,-34.180,-46.875
1790598181.611707,-26.855,-77.637,-13.184,-36.621
1790598181.615517,-8.789,-78.125,-16.113,-14.160
1790598181.619328,-17.090,-90.820,-26.367,-55.176
1790598181.623138,-11.230,-83.008,-21.484,-76.660
1790598181.626949,-20.508,-72.266,-15.137,-40.527
1790598181.630759,-28.320,-76.660,-20.020,-36.133
1790598181.634570,-25.879,-77.637,-18.555,-50.781
1790598181.638380,-37.109,-85.938,-6.348,-74.219
1790598181.642191,-33.691,-85.938,-16.113,-49.805
1790598181.647371,-66.406,-74.219,-18.066,-4.883
1790598181.651184,-50.781,-77.148,0.000,-15.137
1790598181.654996,-34.180,-86.914,4.395,-54.688
1790598181.658809,-55.664,-80.566,-8.301,-35.156
1790598181.662621,-53.223,-72.754,-15.137,-2.930
1790598181.666434,-7.812,-67.871,-2.930,-8.301
1790598181.670246,-23.926,-71.289,3.418,-14.648
1790598181.674059,-52.734,-74.219,-10.742,-42.969
1790598181.677871,-46.875,-71.289,-29.785,-31.738
1790598181.681684,-46.875,-81.543,-20.996,-12.695
1790598181.685497,-56.152,-91.797,1.465,-48.828
1790598181.689309,-56.641,-88.379,-7.324,-46.875
1790598181.694317,-39.062,-82.520,-21.484,-23.438
1790598181.698132,-27.344,-85.938,-25.391,-13.672
1790598181.701946,-14.160,-87.891,-14.648,-32.227
1790598181.705760,-23.438,-86.426,-11.230,-35.156
1790598181.709574,-46.387,-85.449,-22.949,-33.691
1790598181.713389,-39.551,-81.055,-24.902,-25.391
1790598181.717203,-25.879,-77.637,-18.066,-32.715
1790598181.721017,-28.320,-77.148,-13.184,-53.223
1790598181.724832,-29.297,-78.125,-11.719,-25.391
1790598181.728646,-22.461,-78.613,-6.348,5.371
1790598181.732460,-1.953,-80.566,-17.578,0.488
1790598181.736275,1.953,-83.496,-16.113,-12.207
1790598181.741144,-8.301,-73.730,-6.836,-19.531
1790598181.744960,-11.230,-65.430,-20.020,-17.578
1790598181.748776,-2.930,-68.848,-19.531,9.277
1790598181.752592,-6.836,-70.312,-6.836,-20.508
1790598181.756408,-39.062,-70.801,-9.766,-47.852
1790598181.760223,-38.086,-65.918,-13.672,-28.809
1790598181.764039,-7.812,-59.082,-12.695,5.859
1790598181.767855,5.371,-48.340,-7.812,19.043
1790598181.771671,-18.555,-41.504,0.977,-16.113
1790598181.775487,-32.715,-42.969,-9.766,-24.902
1790598181.779303,0.488,-44.434,-18.066,9.766
1790598181.783118,15.625,-56.152,-2.930,-4.883
1790598181.787907,0.000,-66.895,8.789,-39.062
1790598181.791724,0.000,-59.082,20.020,-25.879
1790598181.795541,0.000,-51.270,14.160,2.441
1790598181.799358,0.000,-55.176,0.977,-3.418
1790598181.803175,0.000,-53.711,12.695,-30.273
1790598181.806993,0.000,-53.223,14.160,-20.508
1790598181.810810,0.000,-53.711,0.000,11.719
1790598181.814627,0.000,-51.758,-0.977,42.969
1790598181.818444,0.000,-57.617,3.418,-3.418
1790598181.822261,0.000,-68.848,-10.254,-49.805
1790598181.826078,0.000,-54.688,-4.883,-9.766
1790598181.829895,0.000,-37.598,0.977,23.926
1790598181.834613,15.625,-47.363,-3.906,-6.836
1790598181.838431,17.090,-55.664,6.836,-13.184
1790598181.842249,19.531,-62.500,10.742,12.695
1790598181.846068,20.020,-64.453,6.836,19.043
1790598181.849886,4.395,-73.242,9.277,14.648
1790598181.853705,-10.254,-73.730,14.160,-12.207
1790598181.857523,-26.855,-62.988,10.254,-23.926
1790598181.861342,-37.598,-65.430,4.395,14.648
1790598181.865160,-21.973,-71.289,-1.465,-3.906
1790598181.868979,-10.742,-74.707,-7.812,-36.621
1790598181.872797,-15.137,-70.312,-4.395,-34.668
1790598181.876615,-23.926,-70.801,-14.160,-24.902
1790598181.881203,-11.230,-66.895,-22.949,10.254
1790598181.885023,1.465,-69.336,-10.254,0.977
1790598181.888842,-34.180,-73.242,-15.625,-30.762
1790598181.892662,-60.059,-72.754,-17.090,-41.504
1790598181.896481,-20.020,-66.895,-3.418,-10.742
1790598181.900301,28.320,-51.758,0.488,4.883
1790598181.904120,-11.719,-62.988,-8.789,-34.180
1790598181.907940,-60.059,-83.984,-23.926,-41.016
1790598181.911759,-37.598,-80.078,-32.227,-1.953
1790598181.915579,-13.184,-74.707,-22.949,-14.648
1790598181.919398,-31.738,-81.055,-15.137,-54.199
1790598181.923218,-38.574,-81.543,-17.578,-61.035
1790598181.927753,-18.066,-70.801,-8.301,-7.812
1790598181.931573,-20.020,-55.176,3.418,24.414
1790598181.935394,-14.160,-43.457,7.324,-11.719
1790598181.939214,-32.715,-39.551,6.348,-50.293
1790598181.943035,-38.086,-44.922,-0.488,-24.414
1790598181.946855,-15.625,-53.223,-14.160,34.180
1790598181.950675,-13.184,-68.848,-20.996,-22.949
1790598181.954496,-31.738,-77.637,-22.461,-70.312
1790598181.958316,-66.895,-82.031,-26.855,-63.477
1790598181.962137,-60.547,-82.520,-36.133,-39.062
1790598181.965957,-30.273,-87.891,-23.926,-31.738
1790598181.969778,-39.062,-92.285,-2.930,-55.176
1790598181.974925,-54.199,-81.543,-4.883,-34.180
1790598181.978747,-41.016,-73.730,-6.348,-13.672
1790598181.982569,-31.250,-78.125,-14.160,-36.133
1790598181.986392,-56.641,-77.637,-24.414,-73.730
1790598181.990214,-42.480,-62.012,-21.484,-58.594
1790598181.994036,-8.301,-54.199,-28.809,-15.137
1790598181.997858,-39.551,-70.801,-31.738,-13.184
1790598182.001680,-62.012,-83.496,-28.320,-58.594
1790598182.005503,-48.340,-78.613,-37.109,-87.891
1790598182.009325,-56.641,-80.566,-46.387,-54.688
1790598182.013147,-43.457,-76.172,-39.551,-31.738
1790598182.016969,3.906,-58.594,-25.879,-22.461
1790598182.021966,0.000,-62.500,-14.648,-42.480
1790598182.025789,0.000,-73.242,-17.090,-38.086
1790598182.029613,0.000,-72.266,-24.902,-25.879
1790598182.033437,0.000,-76.660,-26.855,-27.344
1790598182.037261,0.000,-87.891,-30.273,-32.715
1790598182.041084,0.000,-91.309,-33.691,-60.547
1790598182.044908,0.000,-87.891,-26.855,-38.086
1790598182.048732,0.000,-82.031,-20.996,-42.969
1790598182.052555,0.000,-62.012,-14.648,-62.500
1790598182.056379,0.000,-48.340,1.465,-41.016
1790598182.060203,0.000,-59.082,7.324,-9.277
1790598182.064027,0.000,-66.895,5.859,-3.418
1790598182.068969,-4.395,-57.129,12.207,-30.762
1790598182.072794,-37.109,-63.965,8.789,-32.227
1790598182.076619,-53.711,-73.242,-10.254,-12.695
1790598182.080445,-41.016,-73.730,-27.832,-27.344
1790598182.084270,-48.340,-82.031,-21.973,-60.059
1790598182.088095,-57.617,-80.078,-13.672,-50.781
1790598182.091920,-51.758,-65.918,-15.137,-41.504
1790598182.095745,-33.691,-69.336,-25.391,-16.113
1790598182.099571,-11.719,-70.312,-31.250,0.977
1790598182.103396,-28.320,-61.035,-6.836,-46.387
1790598182.107221,-50.293,-68.359,-4.883,-54.199
1790598182.111046,-42.480,-78.125,-21.484,-21.484
1790598182.116572,0.000,-75.684,-12.207,0.000
1790598182.120399,0.000,-76.660,2.441,0.000
1790598182.124226,0.000,-70.312,-6.836,0.000
1790598182.128054,0.000,-54.688,-16.113,0.000
1790598182.131881,0.000,-55.176,-11.230,0.000
1790598182.135708,0.000,-65.430,-6.348,0.000
1790598182.139536,0.000,-73.242,-7.324,0.000
1790598182.143363,0.000,-62.988,-5.859,0.000
1790598182.147190,0.000,-58.594,-2.441,0.000
1790598182.151018,0.000,-64.453,0.977,0.000
1790598182.154845,0.000,-67.383,-5.371,0.000
1790598182.158672,0.000,-73.730,-17.578,0.000
1790598182.163356,-56.152,-83.984,-20.996,-32.227
1790598182.167185,-15.625,-75.195,-12.695,-25.391
1790598182.171013,-28.809,-74.219,-12.695,-62.500
1790598182.174841,-48.340,-84.961,-28.320,-78.613
1790598182.178670,-42.969,-83.984,-35.645,-44.922
1790598182.182498,-64.941,-80.078,-43.945,-36.133
1790598182.186327,-60.059,-76.660,-45.410,-41.504
1790598182.190155,-43.945,-85.449,-29.297,-53.223
1790598182.193983,-70.312,-97.168,-32.227,-49.316
1790598182.197812,-63.965,-82.031,-40.527,-15.137
1790598182.201640,-16.602,-66.406,-31.250,-33.203
1790598182.205468,-35.156,-62.500,-22.461,-67.383
1790598182.210120,-53.711,-70.801,-15.625,-69.824
1790598182.213949,-27.344,-75.195,-22.461,-29.297
1790598182.217779,-41.016,-69.336,-27.344,-38.086
1790598182.221608,-65.430,-56.641,-11.719,-63.477
1790598182.225438,-60.059,-54.688,-20.020,-42.969
1790598182.229267,-38.086,-61.523,-37.109,-26.855
1790598182.233096,-17.578,-60.059,-31.250,0.000
1790598182.236926,-35.645,-67.871,-17.578,-4.395
1790598182.240755,-59.082,-81.055,-19.531,-41.504
1790598182.244585,-41.504,-75.195,-38.574,-27.344
1790598182.248414,-29.785,-70.312,-44.922,-16.113
1790598182.252243,-31.250,-78.613,-18.555,-50.293
1790598182.256757,-50.781,-77.637,-1.953,-64.453
1790598182.260587,-63.477,-76.172,-16.113,-38.574
1790598182.264417,-35.156,-79.102,-21.973,-19.043
1790598182.268247,-23.438,-81.543,-21.484,-36.621
1790598182.272078,-57.617,-81.055,-32.227,-61.523
1790598182.275908,-66.406,-86.914,-45.898,-51.758
1790598182.279738,-50.781,-79.590,-35.156,-16.113
1790598182.283568,-43.457,-72.266,-16.113,-29.297
1790598182.287398,-34.668,-74.707,-30.762,-64.941
1790598182.291229,-37.109,-71.777,-35.156,-37.109
1790598182.295059,-36.133,-61.035,-4.395,1.465
1790598182.298889,-44.434,-59.570,0.000,-14.648
1790598182.303965,-39.062,-66.406,-1.953,-62.500
1790598182.307796,-50.781,-62.988,-14.648,-87.891
1790598182.311628,-85.938,-71.289,-29.785,-70.801
1790598182.315460,-86.426,-68.359,-14.160,-53.711
1790598182.319292,-65.430,-53.711,-4.883,-92.285
1790598182.323123,-83.008,-53.223,-1.465,-113.770
1790598182.326955,-124.023,-48.828,9.277,-119.141
1790598182.330787,-148.926,-36.133,9.277,-129.883
1790598182.334618,-152.344,-24.414,13.672,-157.227
1790598182.338450,-157.227,-7.324,25.879,-179.199
1790598182.342282,-179.199,3.906,47.852,-171.875
1790598182.346113,-185.059,17.090,62.012,-138.184
1790598182.351032,-177.734,27.832,68.848,-140.625
1790598182.354864,-180.664,17.090,83.496,-203.613
1790598182.358697,-197.754,18.555,79.590,-189.453
1790598182.362530,-182.617,14.648,68.848,-141.602
1790598182.366363,-152.832,8.789,59.570,-140.625
1790598182.370196,-156.738,8.789,58.594,-154.785
1790598182.374029,-154.785,6.348,60.059,-167.969
1790598182.377862,-94.238,10.742,52.734,-129.395
1790598182.381695,-86.426,-17.090,18.066,-99.121
1790598182.385528,-112.305,-39.062,8.301,-109.375
1790598182.389361,-129.395,-50.781,20.508,-120.605
1790598182.393194,-142.578,-57.129,-0.488,-103.516
1790598182.398063,-108.398,-50.781,0.000,-31.250
1790598182.401897,-65.918,-67.383,0.000,-26.855
1790598182.405731,-42.480,-70.312,0.000,-63.477
1790598182.409565,-37.598,-62.988,0.000,-49.316
1790598182.413399,-39.551,-78.613,0.000,-35.156
1790598182.417234,-2.441,-88.379,0.000,2.441
1790598182.421068,0.977,-84.473,0.000,-0.977
1790598182.424902,-33.203,-93.750,0.000,-29.297
1790598182.428736,-17.578,-102.539,0.000,-11.719
1790598182.432570,-7.324,-100.586,0.000,34.668
1790598182.436404,4.395,-106.445,0.000,40.039
1790598182.440239,-4.883,-113.281,0.000,25.391
1790598182.444997,1.465,-104.004,-40.527,30.273
1790598182.448832,10.742,-91.309,-46.387,37.109
1790598182.452667,11.719,-92.285,-36.621,6.348
1790598182.456503,20.996,-92.285,-31.250,16.113
1790598182.460338,14.648,-94.238,-39.062,13.184
1790598182.464173,2.930,-100.098,-42.480,16.113
1790598182.468009,-4.395,-93.750,-23.926,44.434
1790598182.471844,-14.160,-95.215,-22.949,36.621
1790598182.475679,-36.133,-104.980,-37.109,6.348
1790598182.479514,-34.668,-110.352,-42.480,5.859
1790598182.483349,-3.418,-109.375,-65.918,15.137
1790598182.487185,2.930,-109.375,-72.266,-8.789
1790598182.491898,-22.461,-110.352,-60.547,-14.648
1790598182.495734,-29.297,-107.422,-56.641,-6.836
1790598182.499570,-11.230,-98.145,-52.734,39.551
1790598182.503407,-5.371,-96.680,-45.410,26.855
1790598182.507243,-18.555,-103.516,-41.016,10.742
1790598182.511079,-22.949,-100.098,-43.457,25.879
1790598182.514915,-9.766,-98.633,-55.664,12.695
1790598182.518751,14.160,-100.098,-57.129,-4.395
1790598182.522588,-25.391,-105.957,-44.434,-23.438
1790598182.526424,-55.176,-108.887,-41.992,-17.578
1790598182.530260,-22.949,-98.633,-35.645,35.156
1790598182.534096,-16.602,-99.609,-38.574,33.203
1790598182.538708,0.000,-104.004,-41.504,-23.438
1790598182.542545,0.000,-104.004,-36.621,-26.855
1790598182.546382,0.000,-91.797,-38.086,33.691
1790598182.550219,0.000,-72.266,-27.832,41.504
1790598182.554056,0.000,-67.383,-12.207,4.395
1790598182.557893,0.000,-69.336,-12.207,9.766
1790598182.561730,0.000,-77.148,-18.555,13.672
1790598182.565567,0.000,-72.266,-28.809,34.668
1790598182.569405,0.000,-76.172,-27.832,21.484
1790598182.573242,0.000,-68.848,-23.926,-4.395
1790598182.577079,0.000,-53.711,-24.902,13.672
1790598182.580916,0.000,-52.734,-18.066,40.527
1790598182.584032,-40.039,-56.641,-7.324,17.090
1790598182.587868,-45.898,-78.125,-20.996,-37.598
1790598182.591705,-18.066,-76.172,-30.273,-24.902
1790598182.595541,-6.836,-62.012,-21.484,12.695
1790598182.599377,-12.695,-70.801,-24.902,-6.348
1790598182.603214,-15.625,-73.242,-31.250,-33.203
1790598182.607050,-2.930,-64.453,-32.227,15.625
1790598182.610886,13.184,-62.988,-29.297,32.227
1790598182.614722,19.531,-67.871,-35.645,-20.508
1790598182.618559,17.090,-73.730,-38.574,-30.273
1790598182.622395,10.254,-71.777,-21.973,-23.438
1790598182.626231,12.207,-62.012,-18.555,-26.367
1790598182.630717,-30.273,-58.105,-18.555,-12.695
1790598182.634554,-13.672,-65.430,-17.090,-2.930
1790598182.638391,-7.324,-68.848,-24.902,-21.484
1790598182.642228,-20.996,-59.570,-19.043,-20.508
1790598182.646065,-31.738,-57.617,-14.160,37.598
1790598182.649902,-8.789,-56.641,-11.719,43.945
1790598182.653739,19.531,-46.387,0.977,15.625
1790598182.657576,10.742,-43.945,7.324,13.672
1790598182.661413,3.418,-45.898,3.906,17.578
1790598182.665250,4.883,-44.434,-2.441,8.301
1790598182.669087,-10.254,-48.828,-0.488,-11.719
1790598182.672924,-29.297,-63.477,-3.418,-29.297
1790598182.677356,-27.344,-72.266,-23.926,-22.949
1790598182.681194,-27.832,-67.383,-39.062,10.742
1790598182.685031,-18.066,-69.336,-30.273,-31.250
1790598182.688869,-17.578,-76.172,-20.996,-36.133
1790598182.692706,2.441,-60.547,-20.996,10.742
1790598182.696544,7.812,-41.992,-20.508,12.207
1790598182.700382,-5.859,-39.551,-20.996,-2.930
1790598182.704219,-10.742,-46.387,-31.250,-27.344
1790598182.708057,-29.297,-62.012,-32.227,-32.715
1790598182.711895,-29.297,-72.754,-29.297,15.625
1790598182.715732,-24.414,-73.730,-13.672,3.906
1790598182.719570,-38.574,-75.195,6.836,-36.621
1790598182.724473,-43.457,-81.055,5.859,-17.578
1790598182.728311,-33.691,-68.359,-1.953,10.742
1790598182.732150,-5.371,-51.270,1.465,1.953
1790598182.735989,0.000,-53.223,10.254,-24.902
1790598182.739828,-25.879,-62.500,-0.488,-10.254
1790598182.743666,-25.879,-63.477,-18.066,5.371
1790598182.747505,3.418,-54.688,-23.438,0.977
1790598182.751344,26.855,-51.270,-14.648,-22.461
1790598182.755183,9.766,-47.852,-13.184,-30.273
1790598182.759021,-36.621,-43.457,-16.602,3.418
1790598182.762860,-66.406,-57.129,-7.324,5.371
1790598182.766699,-8.789,-58.594,-4.395,-18.066
1790598182.771486,23.438,-49.316,-10.742,-18.555
1790598182.775325,-28.809,-54.688,-12.207,-15.137
1790598182.779165,-60.547,-59.570,-8.789,1.953
1790598182.783005,-26.367,-55.664,-13.184,17.578
1790598182.786844,-19.531,-59.570,-21.484,-28.320
1790598182.790684,-27.832,-58.105,-24.902,-22.949
1790598182.794524,-14.648,-45.898,-14.648,19.043
1790598182.798364,-11.719,-48.828,-23.438,18.555
1790598182.802203,-4.395,-49.805,-31.738,16.113
1790598182.806043,-20.996,-58.105,-21.484,-1.953
1790598182.809883,-41.992,-69.336,-20.508,-22.949
1790598182.813723,-26.855,-56.152,-25.391,-0.977
1790598182.818487,-7.324,-43.945,-5.859,-12.207
1790598182.822328,-16.602,-50.293,13.672,-27.344
1790598182.826168,-17.090,-51.758,11.230,-24.902
1790598182.830009,14.648,-46.875,-8.789,3.418
1790598182.833850,32.227,-55.664,-10.742,11.230
1790598182.837691,14.648,-47.852,7.812,-22.949
1790598182.841531,-16.602,-47.852,12.207,-32.227
1790598182.845372,-7.812,-46.875,7.324,24.902
1790598182.849213,6.836,-47.852,7.324,35.156
1790598182.853053,-3.906,-57.617,25.391,-13.672
1790598182.856894,-35.156,-55.176,11.719,-28.809
1790598182.860735,-42.969,-51.758,-3.418,-3.418
1790598182.865840,-15.137,-49.316,6.348,18.555
1790598182.869682,-8.789,-52.246,5.371,-15.137
1790598182.873524,-20.020,-49.805,-3.906,-30.273
1790598182.877366,-17.090,-41.992,-5.371,-27.832
1790598182.881208,-9.766,-46.875,-1.953,20.020
1790598182.885050,1.953,-53.223,7.812,17.090
1790598182.888892,-6.348,-51.270,21.484,-6.348
1790598182.892734,-1.953,-56.641,15.625,11.230
1790598182.896576,14.160,-50.781,8.789,25.391
1790598182.900418,5.859,-36.133,18.066,20.508
1790598182.904260,-1.465,-36.621,29.297,16.113
1790598182.908102,-0.488,-29.297,26.855,18.066
1790598182.912652,-0.488,-25.879,23.438,19.043
1790598182.916495,10.254,-33.691,9.766,12.695
1790598182.920337,11.230,-39.062,1.953,-11.230
1790598182.924180,-20.996,-41.016,20.508,-2.441
1790598182.928023,-20.020,-37.598,28.809,14.160
1790598182.931865,5.859,-38.574,20.020,22.461
1790598182.935708,14.648,-45.410,21.484,5.859
1790598182.939551,-3.418,-53.223,31.738,22.949
1790598182.943393,-18.066,-58.594,27.832,18.555
1790598182.947236,-1.953,-60.059,16.602,5.859
1790598182.951079,10.742,-59.570,15.137,20.508
1790598182.954921,-14.648,-60.059,13.184,-18.066
1790598182.959440,-48.828,-75.195,14.160,-41.504
1790598182.963283,-44.922,-82.520,1.953,-6.348
1790598182.967127,-21.484,-70.312,-14.160,7.812
1790598182.970970,-35.156,-70.312,-5.371,-42.480
1790598182.974813,-63.965,-81.055,4.883,-48.828
1790598182.978657,-54.688,-79.590,-5.371,-17.578
1790598182.982500,-35.645,-78.125,-18.555,21.973
1790598182.986344,-20.508,-78.613,-5.371,2.930
1790598182.990187,-28.809,-76.660,9.277,-51.758
1790598182.994030,-42.480,-75.684,0.977,-2.930
1790598182.997874,-45.898,-75.684,-9.766,1.465
1790598183.001717,-15.137,-63.965,-4.395,-48.828
1790598183.006151,-16.602,-59.570,-7.324,-42.969
1790598183.009995,-30.273,-58.594,-20.996,-9.277
1790598183.013839,-15.625,-59.082,-22.949,13.184
1790598183.017683,-16.113,-59.082,-10.254,20.020
1790598183.021527,-15.625,-48.828,6.348,7.812
1790598183.025371,-17.090,-48.340,7.324,-4.395
1790598183.029215,-18.066,-51.758,-0.488,41.992
1790598183.033059,-14.648,-57.129,11.230,28.320
1790598183.036903,-2.930,-62.988,14.648,-29.785
1790598183.040747,-8.301,-60.547,5.859,-15.137
1790598183.044591,-23.926,-62.012,5.371,15.625
1790598183.048434,-11.230,-61.523,-3.418,3.906
1790598183.053259,10.742,-51.758,2.441,-44.434
1790598183.057104,0.000,-52.246,-2.441,-41.992
1790598183.060949,-5.371,-55.664,-12.207,-1.465
1790598183.064794,-19.531,-57.617,-10.254,-5.371
1790598183.068639,-29.297,-61.523,-4.883,-24.902
1790598183.072484,-37.598,-66.406,-4.883,-41.992
1790598183.076328,-43.457,-62.988,-5.859,-41.016
1790598183.080173,-26.367,-59.082,-6.348,-22.949
1790598183.084018,1.953,-55.664,-11.230,-9.766
1790598183.087863,-4.395,-48.340,-7.812,-7.812
1790598183.091708,-50.293,-58.594,-1.953,-22.949
1790598183.095553,-48.340,-76.172,0.488,-20.020
1790598183.100335,0.000,-62.500,-0.977,15.137
1790598183.104181,0.000,-51.270,2.930,-11.230
1790598183.108027,0.000,-62.988,1.465,-48.340
1790598183.111872,0.000,-62.012,-17.578,-37.109
1790598183.115718,0.000,-56.152,-23.438,7.324
1790598183.119564,0.000,-55.176,-5.371,-6.348
1790598183.123410,0.000,-60.547,-5.371,-53.711
1790598183.127255,0.000,-69.336,-12.207,-44.434
1790598183.131101,0.000,-70.312,-22.949,-19.043
1790598183.134947,0.000,-76.660,-22.949,1.953
1790598183.138793,0.000,-84.473,-9.277,-25.391
1790598183.142639,0.000,-78.125,-21.484,-45.410
1790598183.147319,-8.789,-64.941,-19.043,-0.488
1790598183.151166,-20.996,-68.848,-10.254,-11.719
1790598183.155012,-37.109,-76.172,-9.766,-67.383
1790598183.158859,-41.016,-73.730,-10.742,-46.875
1790598183.162705,-34.668,-75.684,-25.391,0.977
1790598183.166552,-24.414,-76.172,-30.273,7.324
1790598183.170398,-20.020,-68.848,-12.695,-21.484
1790598183.174245,-30.762,-67.871,-10.742,-59.082
1790598183.178092,-28.809,-63.965,-22.461,-29.785
1790598183.181938,-35.645,-62.500,-21.973,1.465
1790598183.185785,-33.203,-72.266,-5.371,-42.480
1790598183.189631,-37.109,-69.824,2.930,-51.758
1790598183.194273,-40.527,-62.500,-2.930,-22.949
1790598183.198120,-20.020,-63.965,-5.859,-3.906
1790598183.201968,-21.973,-66.406,-0.977,-38.574
1790598183.205815,-47.852,-60.547,-8.789,-47.852
1790598183.209662,-59.570,-60.547,-21.484,-7.324
1790598183.213510,-32.227,-66.406,-5.859,11.719
1790598183.217357,-1.953,-65.430,15.137,1.465
1790598183.221204,-11.719,-80.078,11.719,-22.461
1790598183.225052,-48.340,-79.102,9.766,-30.273
1790598183.228899,-62.012,-63.477,2.930,-23.438
1790598183.232746,-22.949,-64.941,-11.230,6.836
1790598183.236594,-9.766,-69.336,-10.742,-24.902
1790598183.241169,-26.855,-67.871,-15.137,-56.152
1790598183.245017,-42.969,-74.707,-20.020,-28.320
1790598183.248865,-25.391,-75.684,-19.531,11.230
1790598183.252713,18.555,-55.664,-7.812,-4.395
1790598183.256561,9.766,-48.340,10.742,-25.879
1790598183.260409,-26.855,-58.594,15.137,-12.695
1790598183.264257,-30.273,-69.336,1.465,3.418
1790598183.268105,-10.254,-81.055,-4.395,-13.672
1790598183.271953,-51.270,-95.215,0.488,-62.012
1790598183.275801,-66.895,-91.797,5.371,-40.527
1790598183.279649,-55.664,-95.215,0.488,22.949
1790598183.283497,-54.199,-103.027,-3.906,9.766
1790598183.288391,-33.691,-91.797,9.277,-34.180
1790598183.292240,-31.738,-81.543,4.395,-26.367
1790598183.296089,-34.180,-79.102,-14.160,-19.531
1790598183.299938,-21.973,-75.195,-10.254,-10.254
1790598183.303787,-17.090,-70.312,1.953,-9.277
1790598183.307636,-27.832,-61.035,0.488,-8.789
1790598183.311485,-33.691,-55.176,-3.418,6.836
1790598183.315334,2.441,-57.617,-1.953,41.992
1790598183.319182,20.996,-58.105,13.672,-2.441
1790598183.323031,-4.883,-56.152,16.602,-41.016
1790598183.326880,-33.203,-53.223,14.648,3.418
1790598183.330729,-9.766,-41.016,22.949,24.414
1790598183.335148,20.508,-32.715,23.438,9.277
1790598183.338997,-8.301,-40.527,12.207,-31.250
1790598183.342847,-23.438,-45.898,6.836,-29.297
1790598183.346696,-6.836,-41.992,7.324,5.371
1790598183.350546,16.113,-41.992,8.789,37.598
1790598183.354395,10.742,-36.621,11.230,38.086
1790598183.358244,-13.184,-29.785,12.695,-11.230
1790598183.362094,0.977,-34.180,16.602,-6.836
1790598183.365943,10.254,-39.062,12.695,20.020
1790598183.369793,16.602,-47.852,4.883,-13.184
1790598183.373642,3.418,-54.688,-3.418,-18.066
1790598183.377492,-26.367,-61.035,-8.301,-0.488
1790598183.381882,-30.762,-60.059,1.465,0.977
1790598183.385732,-17.090,-47.852,2.930,17.578
1790598183.389582,-12.207,-40.527,13.672,-3.906
1790598183.393432,-23.438,-42.480,20.996,-12.695
1790598183.397282,6.348,-35.645,8.301,39.551
1790598183.401132,17.090,-38.086,-8.301,29.785
1790598183.404982,-20.020,-60.547,-9.277,-21.973
1790598183.408832,-56.641,-73.730,-1.465,-50.781
1790598183.412682,-45.898,-64.453,1.953,-24.902
1790598183.416532,-5.859,-60.547,5.859,23.926
1790598183.420382,-3.906,-76.660,12.207,1.953
1790598183.424232,-10.254,-67.383,18.555,-44.434
1790598183.428543,-12.695,-53.223,10.742,-37.598
1790598183.432394,-27.344,-54.688,3.418,21.484
1790598183.436244,-13.184,-51.758,4.395,-6.836
1790598183.440094,-20.508,-48.828,6.836,-41.504
1790598183.443945,-20.508,-45.898,5.859,-8.301
1790598183.447795,-5.371,-36.621,-6.348,15.137
1790598183.451646,2.930,-31.250,-2.930,22.461
1790598183.455496,2.930,-40.039,8.301,-3.906
1790598183.459346,-10.254,-39.551,-6.348,-10.742
1790598183.463197,19.531,-32.715,-10.254,41.016
1790598183.467047,25.391,-38.086,0.488,53.223
1790598183.470897,2.930,-30.273,10.742,-12.695
1790598183.475577,-10.254,-28.320,6.836,-20.020
1790598183.479428,-8.301,-29.785,1.953,5.859
1790598183.483279,-23.438,-33.203,2.441,24.902
1790598183.487130,-20.020,-44.434,8.301,13.184
1790598183.490981,-6.836,-43.945,12.695,-15.625
1790598183.494832,-29.297,-49.316,7.812,-10.254
1790598183.498683,-39.062,-51.270,13.672,23.438
1790598183.502534,-6.348,-55.664,33.691,-3.418
1790598183.506385,12.695,-59.570,35.645,-6.348
1790598183.510237,1.953,-40.527,16.602,22.461
1790598183.514088,-22.461,-42.480,9.277,0.488
1790598183.517939,-21.484,-49.316,13.184,10.254
1790598183.522552,-9.766,-40.527,8.789,5.859
1790598183.526403,-21.484,-40.039,-2.441,-27.832
1790598183.530255,-18.555,-42.969,3.418,1.465
1790598183.534107,-27.344,-49.805,15.625,28.809
1790598183.537959,-13.184,-53.711,17.578,6.836
1790598183.541810,-9.277,-50.293,12.207,0.000
1790598183.545662,-29.785,-50.781,10.742,23.438
1790598183.549514,-18.555,-52.734,9.277,37.109
1790598183.553365,0.977,-54.199,13.672,11.719
1790598183.557217,0.488,-43.945,22.461,-1.953
1790598183.561069,-0.977,-42.480,18.066,12.695
1790598183.564921,-17.578,-43.457,0.488,26.367
1790598183.569479,0.000,-31.250,-5.859,5.371
1790598183.573332,0.000,-33.203,0.977,-23.438
1790598183.577184,0.000,-35.645,-5.371,0.488
1790598183.581036,0.000,-35.645,-15.625,55.176
1790598183.584889,0.000,-48.340,-8.301,54.688
1790598183.588741,0.000,-52.246,-2.441,3.418
1790598183.592593,0.000,-57.617,-4.395,-27.832
1790598183.596446,0.000,-58.105,-12.207,-3.906
1790598183.600298,0.000,-50.293,-13.184,30.273
1790598183.604151,0.000,-48.828,12.695,-1.953
1790598183.608003,0.000,-50.781,6.348,-16.602
1790598183.611855,0.000,-52.734,-11.719,6.836
1790598183.616335,11.230,-50.293,6.836,30.762
1790598183.620188,1.953,-44.922,30.273,27.344
1790598183.624041,-1.953,-39.551,20.508,11.719
1790598183.627893,6.348,-33.691,10.742,16.602
1790598183.631746,9.766,-35.645,5.371,0.977
1790598183.635599,0.977,-47.363,-6.348,-10.742
1790598183.639452,0.977,-52.734,-9.277,-18.066
1790598183.643305,-0.977,-53.223,-14.648,-13.672
1790598183.647158,-13.672,-61.523,-13.672,11.230
1790598183.651011,-22.949,-69.336,8.789,2.930
1790598183.654864,-20.996,-71.289,3.418,-30.762
1790598183.658716,-21.484,-71.289,-29.785,-33.691
1790598183.663318,0.000,-87.402,-12.695,-12.207
1790598183.667171,0.000,-83.984,10.742,-0.977
1790598183.671025,0.000,-68.848,13.184,-24.902
1790598183.674878,0.000,-70.312,9.277,-25.391
1790598183.678732,0.000,-71.777,-13.184,-24.414
1790598183.682585,0.000,-66.895,-29.785,-25.879
1790598183.686439,0.000,-66.895,-20.020,-33.691
1790598183.690292,0.000,-60.547,-17.090,-1.465
1790598183.694146,0.000,-62.012,-23.926,-18.555
1790598183.697999,0.000,-67.383,-7.324,-26.367
1790598183.701853,0.000,-70.801,-1.465,-9.277
1790598183.705707,0.000,-87.891,-7.324,-49.805
1790598183.710071,-66.895,-88.867,-5.859,-54.688
1790598183.713924,-41.016,-65.430,-13.184,-31.250
1790598183.717778,-13.184,-45.410,-5.859,0.000
1790598183.721632,-14.648,-44.922,11.230,4.883
1790598183.725486,-40.527,-47.363,19.531,-14.648
1790598183.729340,-10.254,-42.969,23.438,13.184
1790598183.733194,38.086,-42.480,0.488,35.645
1790598183.737048,0.488,-44.434,-8.789,-39.062
1790598183.740902,-36.621,-35.645,6.836,-54.199
1790598183.744756,-44.434,-24.902,4.395,-12.207
1790598183.748610,-24.902,-25.391,-6.348,2.441
1790598183.752464,6.836,-24.414,3.906,10.254
1790598183.756788,0.000,-31.250,19.531,-18.555
1790598183.760643,0.000,-40.039,-2.930,-29.785
1790598183.764497,0.000,-27.832,-21.484,24.414
1790598183.768352,0.000,-22.461,6.836,42.480
1790598183.772206,0.000,-23.926,22.461,-20.508
1790598183.776060,0.000,-26.367,-0.977,-25.391
1790598183.779914,0.000,-33.203,2.930,30.273
1790598183.783769,0.000,-37.598,20.020,40.039
1790598183.787623,0.000,-39.062,16.113,-10.742
1790598183.791477,0.000,-35.645,4.395,-18.555
1790598183.795332,0.000,-32.227,-10.742,13.672
1790598183.799186,0.000,-42.480,-20.996,32.227
1790598183.803444,-10.742,-57.617,-20.020,4.395
1790598183.807298,4.883,-54.688,-17.090,-35.156
1790598183.811153,-4.883,-48.828,-9.277,-5.859
1790598183.815008,2.441,-44.922,1.465,31.738
1790598183.818862,2.930,-39.062,0.977,19.531
1790598183.822717,-0.488,-52.246,-16.113,-13.184
1790598183.826572,-14.648,-57.617,-20.020,-19.043
1790598183.830426,-20.996,-46.387,-15.625,1.953
1790598183.834281,-3.906,-45.898,-8.789,7.324
1790598183.838136,7.324,-39.062,-2.441,-8.301
1790598183.841990,-17.090,-44.434,-8.789,4.883
1790598183.845845,-26.855,-55.664,-9.766,4.883
1790598183.850478,-3.418,-53.711,-8.789,1.465
1790598183.854333,1.465,-59.570,1.953,-7.324
1790598183.858188,-27.344,-60.547,7.812,-9.766
1790598183.862044,-44.434,-61.523,-11.230,-4.883
1790598183.865899,-27.832,-61.523,-28.320,0.977
1790598183.869754,-14.160,-58.594,-24.414,1.953
1790598183.873610,-31.250,-60.059,-8.789,-49.316
1790598183.877465,-41.504,-58.105,-1.953,-68.848
1790598183.881320,-18.066,-49.805,-4.395,6.348
1790598183.885175,15.625,-38.574,4.883,33.203
1790598183.889031,-15.625,-53.711,14.648,-21.973
1790598183.892886,-43.945,-67.871,5.371,-27.832
1790598183.897477,-26.855,-56.641,-7.812,1.465
1790598183.901333,-32.715,-50.293,-11.719,7.324
1790598183.905189,-27.832,-48.340,-2.441,-14.648
1790598183.909045,-25.879,-47.363,-8.789,-29.785
1790598183.912901,-24.902,-45.898,-21.484,-22.461
1790598183.916757,-14.648,-47.363,-14.648,6.348
1790598183.920613,-19.043,-49.316,-4.395,-18.555
1790598183.924469,-35.156,-52.246,-11.719,-51.758
1790598183.928324,-50.781,-64.453,-30.273,-17.578
1790598183.932180,-20.996,-72.266,-25.391,18.066
1790598183.936036,-10.742,-66.895,-1.465,1.953
1790598183.939892,-41.504,-65.918,0.000,-29.297
1790598183.944410,-38.574,-58.594,-7.812,-9.766
1790598183.948266,-13.184,-48.340,-10.742,6.348
1790598183.952122,2.930,-50.781,1.465,-14.648
1790598183.955979,-20.996,-57.617,1.465,-31.250
1790598183.959835,-41.992,-66.406,-9.766,-33.203
1790598183.963692,-17.090,-58.594,1.953,-3.906
1790598183.967548,9.766,-56.152,10.742,10.742
1790598183.971405,1.465,-66.406,6.836,-19.043
1790598183.975261,-16.602,-57.129,-1.953,-16.602
1790598183.979117,-15.137,-52.246,4.883,8.301
1790598183.982974,0.977,-57.129,-2.441,24.414
1790598183.986830,-1.465,-56.152,-6.348,16.602
1790598183.991287,-17.090,-54.688,0.488,-23.438
1790598183.995143,12.207,-45.898,2.930,-8.301
1790598183.999000,41.992,-31.250,7.324,20.508
1790598184.002857,16.113,-29.297,10.254,3.906
1790598184.006714,-6.348,-39.062,18.555,-20.508
1790598184.010571,-10.254,-43.457,11.230,-7.324
1790598184.014428,0.977,-43.945,-1.465,-1.465
1790598184.018285,30.273,-45.898,-13.184,-2.441
1790598184.022141,-20.020,-51.758,-2.930,-11.719
1790598184.025998,-56.152,-45.898,-0.488,-29.297
1790598184.029855,-12.695,-41.016,-14.160,-11.230
1790598184.033712,17.578,-49.805,-7.812,13.184
1790598184.038116,9.277,-49.805,6.836,-9.766
1790598184.041973,-12.695,-48.828,12.695,-37.598
1790598184.045830,19.531,-39.551,19.531,-7.812
1790598184.049688,37.598,-30.273,17.090,35.645
1790598184.053545,14.648,-34.668,17.578,4.395
1790598184.057402,-3.906,-27.832,28.320,-8.789
1790598184.061260,1.465,-20.020,31.250,41.504
1790598184.065117,28.809,-37.598,21.484,51.270
1790598184.068974,39.551,-49.316,20.996,-0.977
1790598184.072831,8.301,-39.062,18.555,-45.410
1790598184.076689,-21.973,-27.344,14.648,-17.578
1790598184.080546,-15.137,-25.391,15.137,11.719
1790598184.084914,0.000,-37.109,17.090,25.391
1790598184.088772,0.000,-42.969,23.926,3.906
1790598184.092629,0.000,-35.645,20.508,-15.137
1790598184.096487,0.000,-30.273,16.113,-12.207
1790598184.100345,0.000,-36.621,18.066,14.160
1790598184.104203,0.000,-41.992,16.602,1.465
1790598184.108060,0.000,-42.969,-7.812,-29.297
1790598184.111918,0.000,-35.645,0.000,0.977
1790598184.115776,0.000,-24.414,19.531,5.371
1790598184.119633,0.000,-27.344,4.883,-13.184
1790598184.123491,0.000,-38.086,0.977,-38.086
1790598184.127349,0.000,-42.480,-1.953,-35.156
1790598184.131671,-7.324,-33.691,-7.812,24.414
1790598184.135529,-3.906,-20.996,1.953,24.414
1790598184.139387,-17.090,-27.832,13.672,-36.621
1790598184.143245,-34.180,-24.902,23.926,-27.344
1790598184.147103,-8.789,-13.184,24.414,-1.465
1790598184.150961,45.410,-4.883,9.277,-2.930
1790598184.154819,33.691,-16.113,9.277,9.277
1790598184.158677,-30.273,-40.039,11.230,-21.484
1790598184.162535,-41.992,-40.039,3.906,-32.715
1790598184.166393,0.977,-34.180,-10.742,18.066
1790598184.170251,6.348,-37.598,-5.371,7.812
1790598184.174109,-15.137,-33.691,11.719,-10.254
1790598184.178391,-15.137,-29.785,3.418,-20.996
1790598184.182250,-6.836,-37.109,-6.348,-14.160
1790598184.186108,-16.602,-42.969,-4.395,-2.930
1790598184.189966,-42.480,-49.805,-5.859,-46.875
1790598184.193825,-60.059,-50.293,-14.160,-59.570
1790598184.197683,-31.738,-48.340,-23.438,-2.441
1790598184.201541,-3.906,-62.988,-26.367,28.320
1790598184.205400,-28.809,-70.801,-18.066,-24.414
1790598184.209258,-45.898,-55.176,-19.043,-72.266
1790598184.213117,-42.480,-53.223,-36.621,-27.832
1790598184.216975,-50.781,-48.828,-25.879,2.441
1790598184.220833,-44.434,-43.945,-10.254,-44.434
1790598184.225412,-43.945,-52.734,-26.367,-54.688
1790598184.229271,-58.594,-53.223,-28.809,-19.531
1790598184.233130,-31.250,-43.457,-26.367,3.418
1790598184.236989,-1.465,-45.410,-31.250,-17.090
1790598184.240848,-9.766,-54.688,-32.227,-35.156
1790598184.244707,-26.855,-62.988,-35.156,-36.621
1790598184.248566,-25.391,-74.219,-43.945,-26.367
1790598184.252424,-20.996,-79.102,-32.715,-34.668
1790598184.256283,-22.949,-64.453,-16.113,-29.785
1790598184.260142,-36.133,-50.781,-18.555,-10.742
1790598184.264001,-45.898,-43.457,-7.812,11.230
1790598184.267860,-41.992,-43.945,-8.789,12.695
1790598184.272385,-51.270,-62.988,-20.508,-21.973
1790598184.276244,-56.641,-64.941,-17.578,-41.992
1790598184.280104,-36.621,-55.664,-16.113,-42.969
1790598184.283963,-25.879,-56.641,-30.762,-18.066
1790598184.287823,-7.324,-65.918,-26.855,-13.184
1790598184.291682,-9.766,-76.172,-22.949,-33.691
1790598184.295542,-30.273,-81.055,-45.898,-42.969
1790598184.299401,-21.973,-83.008,-46.387,-26.367
1790598184.303260,-14.648,-86.426,-22.461,-4.395
1790598184.307120,-30.762,-80.566,-5.371,-14.160
1790598184.310979,-43.945,-76.660,-5.371,-38.574
1790598184.314839,-25.391,-69.824,-20.508,5.371
1790598184.319343,-0.977,-69.824,-21.484,13.184
1790598184.323203,2.441,-70.801,-11.719,-34.180
1790598184.327063,-23.438,-61.035,-13.184,-24.414
1790598184.330923,1.953,-41.992,-10.254,13.672
1790598184.334783,38.086,-32.227,-3.418,12.695
1790598184.338643,-4.395,-41.504,8.301,-21.484
1790598184.342502,-37.598,-43.945,12.207,-34.668
1790598184.346362,-9.766,-39.062,0.977,6.348
1790598184.350222,5.859,-32.227,-2.441,40.039
1790598184.354082,-13.184,-36.621,17.090,1.465
1790598184.357942,-37.598,-50.293,8.789,-36.133
1790598184.361802,-40.039,-50.293,-7.812,-11.230
1790598184.366227,-27.344,-42.969,0.000,8.789
1790598184.370087,-4.883,-45.898,0.000,-38.574
1790598184.373948,1.465,-47.852,0.000,-70.312
1790598184.377808,-32.715,-39.551,0.000,-35.645
1790598184.381668,-29.297,-32.715,0.000,10.742
1790598184.385529,-8.301,-31.738,0.000,11.230
1790598184.389389,-12.207,-34.668,0.000,-34.668
1790598184.393249,-7.812,-29.297,0.000,-24.414
1790598184.397110,3.906,-28.320,0.000,9.766
1790598184.400970,-4.395,-36.133,0.000,2.441
1790598184.404830,9.277,-26.855,0.000,-10.742
1790598184.408690,-5.371,-12.695,0.000,2.930
1790598184.413063,-37.109,-13.672,10.742,-4.883
1790598184.416923,-33.203,-20.020,-0.977,-10.254
1790598184.420784,-14.648,-22.949,-8.301,5.859
1790598184.424645,-3.418,-29.785,-12.695,-10.254
1790598184.428505,11.719,-27.832,-1.953,-12.695
1790598184.432366,18.066,-19.043,10.254,25.391
1790598184.436227,2.930,-25.879,10.742,14.160
1790598184.440087,-1.465,-30.762,14.648,-14.160
1790598184.443948,-0.488,-28.809,21.973,-20.996
1790598184.447809,11.719,-23.926,16.602,18.066
1790598184.451669,13.184,-19.531,4.883,38.086
1790598184.455530,0.977,-19.043,17.578,1.465
1790598184.459880,0.000,-26.855,0.000,-27.344
1790598184.463741,0.000,-33.203,0.000,-0.977
1790598184.467602,0.000,-28.809,0.000,19.531
1790598184.471463,0.000,-35.156,0.000,-16.113
1790598184.475324,0.000,-42.969,0.000,-19.043
1790598184.479185,0.000,-32.227,0.000,-3.418
1790598184.483046,0.000,-44.434,0.000,-6.836
1790598184.486907,0.000,-64.941,0.000,-25.879
1790598184.490768,0.000,-59.570,0.000,-47.852
1790598184.494629,0.000,-47.363,0.000,-33.203
1790598184.498490,0.000,-38.574,0.000,12.207
1790598184.502351,0.000,-47.852,0.000,19.043
1790598184.505681,-5.371,-63.477,3.906,-36.133
1790598184.509542,-7.812,-69.824,-12.695,-53.223
1790598184.513402,19.531,-65.430,-21.973,-12.695
1790598184.517263,10.742,-59.570,-6.836,0.977
1790598184.521123,-30.762,-58.594,-0.488,-48.828
1790598184.524984,-5.371,-54.199,-5.859,-51.758
1790598184.528845,8.301,-52.246,-6.348,-8.301
1790598184.532705,-8.789,-55.664,1.465,6.836
1790598184.536566,-55.664,-60.547,10.742,2.930
1790598184.540426,-80.078,-66.895,0.000,-27.344
1790598184.544287,-49.316,-57.129,-7.324,-28.320
1790598184.548148,-37.598,-54.199,-9.277,6.348
1790598184.552385,-21.484,-61.035,-10.254,-0.488
1790598184.556246,-33.691,-57.129,-0.488,-24.902
1790598184.560107,-37.598,-60.547,3.418,-15.137
1790598184.563967,-27.344,-56.641,-6.836,-8.301
1790598184.567828,-8.789,-49.805,-8.789,-25.879
1790598184.571689,-10.742,-57.617,-0.488,-28.320
1790598184.575550,-38.086,-68.848,-0.488,-1.465
1790598184.579411,-50.781,-77.637,-1.953,-22.949
1790598184.583272,-42.480,-79.590,0.000,-36.621
1790598184.587133,-28.809,-74.219,1.953,-13.184
1790598184.590994,-16.113,-60.059,10.742,-12.207
1790598184.594855,-9.766,-49.316,8.301,-14.160
1790598184.599432,-14.160,-59.082,-12.695,21.484
1790598184.603294,6.348,-62.500,-17.578,11.230
1790598184.607155,-14.160,-57.129,-12.695,-28.320
1790598184.611017,-57.129,-57.129,-18.555,-36.621
1790598184.614878,-30.762,-53.223,-22.949,-15.625
1790598184.618739,-0.977,-46.387,-23.438,4.883
1790598184.622601,-9.277,-44.922,-19.043,-25.879
1790598184.626462,-30.273,-47.852,-18.555,-48.828
1790598184.630324,-38.574,-49.805,-22.949,2.441
1790598184.634185,-30.273,-50.293,-12.207,9.277
1790598184.638047,-21.973,-49.805,4.395,-49.316
1790598184.641908,-17.090,-43.945,-3.906,-47.852
1790598184.646451,0.000,-47.852,-14.648,-12.695
1790598184.650313,0.000,-58.594,-16.602,-6.836
1790598184.654175,0.000,-58.105,-3.906,-36.621
1790598184.658036,0.000,-58.594,1.465,-29.785
1790598184.661898,0.000,-59.082,-16.113,-5.371
1790598184.665760,0.000,-60.547,-21.484,-6.836
1790598184.669622,0.000,-57.617,-5.859,-15.625
1790598184.673484,0.000,-49.805,-5.371,-46.875
1790598184.677346,0.000,-46.875,-19.531,-26.367
1790598184.681208,0.000,-44.922,-22.949,6.348
1790598184.685070,0.000,-48.828,-2.930,-20.020
1790598184.688931,0.000,-47.363,9.766,-14.160
1790598184.693409,-16.113,-42.480,3.418,-8.301
1790598184.697272,-3.418,-40.039,-8.789,-18.066
1790598184.701134,-1.465,-40.039,-23.438,-1.465
1790598184.704996,-18.555,-49.805,-22.461,-17.578
1790598184.708859,-38.086,-52.734,-11.230,-34.180
1790598184.712721,-26.855,-45.898,-8.301,0.488
1790598184.716583,-5.371,-47.852,-14.160,32.715
1790598184.720446,10.254,-45.898,-14.648,-14.160
1790598184.724308,15.137,-41.504,-12.695,-20.020
1790598184.728170,-18.066,-48.828,-1.953,27.832
1790598184.732033,-22.461,-45.898,5.371,7.324
1790598184.735895,-1.953,-32.227,6.348,-7.812
1790598184.740328,-13.184,-23.926,19.043,-5.371
1790598184.744190,-6.836,-23.438,18.066,-24.414
1790598184.748053,15.625,-25.391,0.000,28.809
1790598184.751916,20.996,-18.555,8.301,46.875
1790598184.755779,3.906,-14.160,19.531,-21.973
1790598184.759641,-21.484,-19.531,17.090,-0.488
1790598184.763504,-35.156,-31.250,2.441,28.809
1790598184.767367,-12.207,-37.598,-12.207,10.742
1790598184.771230,13.672,-40.039,13.672,-17.578
1790598184.775092,-9.766,-31.250,28.320,-31.250
1790598184.778955,3.418,-19.043,10.742,-2.441
1790598184.782818,41.016,-17.090,1.465,29.297
1790598184.787191,19.531,-11.719,6.348,20.996
1790598184.791054,-17.090,-19.043,11.230,-13.184
1790598184.794917,-10.742,-25.391,7.324,-6.348
1790598184.798780,0.488,-32.227,-8.789,15.625
1790598184.802643,-2.441,-46.875,-3.906,-7.324
1790598184.806506,-41.016,-66.895,-14.160,-39.551
1790598184.810369,-69.824,-80.078,-29.785,-42.969
1790598184.814232,-40.527,-71.777,-26.367,-9.766
1790598184.818095,-15.137,-73.730,-21.973,-7.324
1790598184.821958,-7.324,-61.523,-5.859,-13.184
1790598184.825821,-17.090,-42.969,-3.906,-31.250
1790598184.829684,-23.926,-45.898,-21.973,-23.926
1790598184.834026,-28.809,-43.457,-22.949,-4.395
1790598184.837889,-5.371,-33.691,-11.230,-45.410
1790598184.841753,-29.297,-28.809,-17.578,-70.312
1790598184.845616,-50.781,-39.062,-24.902,-42.480
1790598184.849480,-29.297,-41.992,-17.090,-4.395
1790598184.853343,-19.531,-42.480,-10.742,-13.672
1790598184.857206,-18.555,-54.688,-17.090,-40.527
1790598184.861070,-24.414,-62.988,-24.902,-21.484
1790598184.864933,-24.902,-65.918,-27.832,-3.418
1790598184.868796,-4.395,-61.035,-26.855,-29.297
1790598184.872660,-18.066,-60.059,-13.672,-47.363
1790598184.876523,-40.039,-55.176,-10.742,-41.992
1790598184.880783,-21.484,-42.480,-19.531,-26.855
1790598184.884646,-13.672,-45.898,-21.484,-27.832
1790598184.888510,-21.484,-44.922,-16.602,-46.387
1790598184.892374,-50.293,-35.645,-7.812,-46.387
1790598184.896237,-55.664,-42.480,-9.277,-4.395
1790598184.900101,-25.391,-46.875,-20.020,18.066
1790598184.903965,-6.836,-41.504,-18.066,-26.855
1790598184.907828,-33.203,-45.898,-0.488,-46.875
1790598184.911692,-21.973,-53.711,4.395,-29.297
1790598184.915555,8.789,-47.363,0.488,7.812
1790598184.919419,-3.418,-40.039,0.488,4.395
1790598184.923283,-35.645,-41.992,13.184,-36.133
1790598184.927817,-34.668,-34.668,21.484,-12.695
1790598184.931681,-17.090,-32.715,5.859,3.418
1790598184.935545,0.977,-43.945,0.000,-26.855
1790598184.939409,10.254,-43.945,13.672,-31.738
1790598184.943273,-16.602,-38.086,21.484,-12.695
1790598184.947137,-22.949,-39.551,2.930,26.367
1790598184.951001,-10.742,-35.156,-0.977,20.996
1790598184.954865,-15.137,-36.621,9.766,1.465
1790598184.958730,-1.953,-36.133,9.277,8.301
1790598184.962594,-4.883,-38.574,9.277,-26.367
1790598184.966458,-33.691,-61.035,11.230,-31.738
1790598184.970322,-21.484,-73.242,18.066,-43.457
1790598184.974832,-33.691,-72.754,17.090,-51.270
1790598184.978696,-47.852,-62.012,6.836,-32.715
1790598184.982560,-13.184,-50.293,17.578,13.672
1790598184.986425,7.812,-43.945,35.156,52.734
1790598184.990289,-10.254,-46.875,21.484,3.418
1790598184.994154,-29.297,-61.035,-3.418,-32.715
1790598184.998019,-14.648,-57.129,9.277,-2.930
1790598185.001883,5.859,-51.270,20.020,1.953
1790598185.005748,-1.953,-57.617,1.465,-26.855
1790598185.009612,-22.461,-47.363,1.953,-17.578
1790598185.013476,-47.852,-48.340,19.531,13.672
1790598185.017341,-49.805,-62.012,14.160,13.184
1790598185.021807,-17.090,-58.105,8.789,5.371
1790598185.025672,-21.484,-62.012,3.906,-23.926
1790598185.029537,-21.484,-67.383,-11.230,-25.391
1790598185.033402,-9.766,-55.176,-16.113,1.465
1790598185.037267,-15.625,-48.828,-9.277,-13.184
1790598185.041132,-31.250,-51.758,-0.977,-24.902
1790598185.044997,-52.246,-62.500,-11.230,-21.484
1790598185.048862,-15.625,-59.082,-19.043,3.906
1790598185.052726,26.367,-48.340,-10.254,26.855
1790598185.056591,-7.812,-38.086,2.930,-20.996
1790598185.060456,-34.668,-41.992,17.090,-42.969
1790598185.064321,-1.465,-43.945,12.207,7.812
1790598185.068708,26.367,-22.949,6.836,29.297
1790598185.072573,2.441,-21.973,3.906,-8.301
1790598185.076438,-26.367,-26.367,-5.371,-23.926
1790598185.080303,-14.648,-27.344,-11.719,28.809
1790598185.084168,12.695,-41.992,-13.672,26.855
1790598185.088034,6.836,-51.758,-9.766,-44.922
1790598185.091899,-27.832,-45.898,0.488,-48.828
1790598185.095764,-34.180,-49.316,-1.953,-24.414
1790598185.099629,-2.441,-49.316,-12.695,-8.789
1790598185.103495,5.371,-48.828,5.371,-32.715
1790598185.107360,-34.668,-58.594,-2.930,-69.824
1790598185.111225,-43.457,-57.617,-26.367,-46.875
1790598185.115626,-22.949,-66.406,-29.785,12.207
1790598185.119491,-17.578,-69.824,-20.020,-1.465
1790598185.123357,-13.184,-57.617,-14.160,-66.895
1790598185.127222,-37.598,-59.082,-25.879,-70.801
1790598185.131088,-35.156,-58.594,-17.090,-19.043
1790598185.134953,-14.160,-53.711,-1.465,-9.766
1790598185.138819,-22.949,-62.012,0.488,-39.062
1790598185.142684,-42.969,-73.730,-7.324,-40.039
1790598185.146550,-45.898,-81.543,-12.695,-22.461
1790598185.150416,-25.391,-85.938,-14.648,-10.742
1790598185.154281,-14.648,-78.125,-5.371,-36.133
1790598185.158147,-47.852,-67.871,1.465,-33.691
1790598185.162511,-62.988,-69.336,-7.324,-25.879
1790598185.166377,-28.809,-77.637,-20.508,-19.043
1790598185.170243,-7.812,-68.848,-17.090,-16.602
1790598185.174109,-22.949,-61.035,-6.348,-40.527
1790598185.177975,-43.945,-67.871,-7.324,-29.785
1790598185.181841,-32.227,-64.941,-16.602,4.395
1790598185.185706,-2.930,-61.523,-16.113,1.465
1790598185.189572,-6.348,-57.617,-7.324,-21.484
1790598185.193438,-49.316,-66.895,-19.043,-49.805
1790598185.197304,-36.133,-71.289,-22.461,-28.809
1790598185.201170,11.230,-62.012,-15.625,2.930
1790598185.205036,6.836,-58.105,-12.207,-48.828
1790598185.209325,-37.109,-58.105,-6.836,-74.219
1790598185.213191,-60.059,-56.152,-10.742,-34.668
1790598185.217057,-31.250,-41.504,-12.695,-1.465
1790598185.220923,-0.977,-38.574,-11.230,-9.766
1790598185.224789,-11.230,-49.805,-5.371,-49.805
1790598185.228655,-3.906,-38.086,3.418,-22.949
1790598185.232522,5.371,-30.762,0.977,36.621
1790598185.236388,11.230,-36.133,2.930,8.301
1790598185.240254,-25.391,-44.922,3.906,-55.664
1790598185.244120,-39.062,-61.035,-4.395,-43.945
1790598185.247986,-32.715,-58.105,-11.230,-30.273
1790598185.251852,-37.109,-53.223,-10.254,-12.695
1790598185.256124,-29.785,-54.688,4.883,-8.789
1790598185.259991,-52.246,-58.105,-6.348,-62.988
1790598185.263857,-37.109,-67.871,-14.648,-62.988
1790598185.267724,-2.930,-70.312,-2.930,-17.578
1790598185.271590,-17.578,-81.055,2.930,-28.809
1790598185.275456,-64.453,-96.680,-6.836,-56.641
1790598185.279323,-62.988,-81.055,2.441,-24.902
1790598185.283189,-37.598,-71.289,12.207,-0.977
1790598185.287055,-29.785,-88.379,1.465,-7.324
1790598185.290922,-41.992,-96.680,-7.324,-48.828
1790598185.294788,-51.270,-95.703,-14.648,-55.176
1790598185.298655,-54.688,-83.496,-21.484,-14.160
1790598185.302855,-47.852,-77.148,-16.113,10.742
1790598185.306721,-33.203,-72.754,2.441,-25.391
1790598185.310588,-41.016,-68.359,-2.930,-61.523
1790598185.314455,-42.480,-77.148,-7.324,-25.879
1790598185.318321,-47.363,-81.543,-5.859,-22.461
1790598185.322188,-45.410,-75.684,-4.395,-34.180
1790598185.326055,-44.922,-77.148,1.465,-39.551
1790598185.329921,-56.641,-89.355,-7.812,-10.254
1790598185.333788,-23.438,-73.242,-11.719,26.367
1790598185.337654,0.977,-66.895,0.000,-16.113
1790598185.341521,-33.691,-90.820,-7.324,-70.312
1790598185.345388,-62.988,-93.262,-18.066,-71.289
1790598185.349909,-12.207,-81.055,-16.113,-15.625
1790598185.353776,36.133,-65.918,-4.883,-10.742
1790598185.357643,-23.926,-64.941,-1.953,-44.922
1790598185.361510,-46.875,-72.754,-1.953,-47.852
1790598185.365377,-3.906,-65.918,3.906,-5.859
1790598185.369244,-6.348,-58.105,4.395,25.391
1790598185.373111,-27.832,-62.012,-9.766,-29.785
1790598185.376978,-35.645,-61.035,-10.742,-42.969
1790598185.380845,-7.812,-55.176,1.465,9.766
1790598185.384712,24.902,-50.293,10.742,31.738
1790598185.388579,10.254,-49.316,21.973,-13.184
1790598185.392446,-32.227,-47.852,19.043,-51.270
1790598185.396901,-14.648,-43.457,8.789,7.812
1790598185.400769,22.461,-44.434,0.977,26.855
1790598185.404636,19.531,-48.340,4.395,-31.738
1790598185.408503,-19.043,-66.406,-3.906,-58.594
1790598185.412371,-37.598,-66.406,-13.672,-20.508
1790598185.416238,-5.371,-51.270,-6.348,31.250
1790598185.420105,25.879,-50.293,-7.324,15.137
1790598185.423973,13.672,-58.105,-5.371,-22.461
1790598185.427840,-9.277,-64.453,-2.441,-17.578
1790598185.431708,-32.715,-68.848,-2.930,-5.371
1790598185.435575,-19.043,-62.988,4.395,-11.719
1790598185.439442,-6.348,-56.641,9.766,-23.438
1790598185.443843,-35.156,-52.246,18.066,-24.902
1790598185.447711,-24.902,-52.246,10.254,-1.953
1790598185.451579,-5.859,-58.105,-5.859,12.695
1790598185.455446,-11.719,-53.711,-1.465,-15.625
1790598185.459314,-37.598,-59.570,0.000,-39.551
1790598185.463182,-35.156,-66.406,-7.324,2.930
1790598185.467049,-16.113,-58.594,1.465,43.457
1790598185.470917,-5.859,-53.711,15.137,-17.090
1790598185.474785,-18.066,-49.316,21.484,-32.715
1790598185.478652,-53.711,-60.059,25.879,-25.879
1790598185.482520,-56.152,-70.312,12.695,-32.227
1790598185.486388,-27.832,-66.895,-1.465,-13.672
1790598185.490737,-36.621,-73.242,0.488,-32.715
1790598185.494605,-36.133,-70.312,-0.488,-50.293
1790598185.498473,-23.438,-61.035,-10.254,-20.508
1790598185.502341,-19.043,-59.570,-10.254,4.883
1790598185.506209,-12.695,-58.594,-4.395,-30.762
1790598185.510077,-43.945,-62.012,-4.883,-49.805
1790598185.513945,-37.109,-60.059,-17.578,-16.602
1790598185.517813,6.836,-50.293,-25.879,16.602
1790598185.521681,12.207,-58.594,-5.371,-6.836
1790598185.525549,-27.832,-75.684,9.277,-53.223
1790598185.529417,-25.391,-73.730,-5.859,-26.367
1790598185.533285,-0.488,-66.895,1.953,37.109
1790598185.537682,6.348,-64.453,20.508,19.531
1790598185.541550,-19.531,-62.012,16.602,-37.109
1790598185.545418,-46.875,-62.012,5.371,-19.531
1790598185.549287,-27.344,-59.570,11.230,25.391
1790598185.553155,8.789,-47.852,26.855,30.762
1790598185.557023,-2.930,-45.410,30.762,-5.859
1790598185.560892,-14.648,-46.875,20.996,-20.020
1790598185.564760,0.977,-41.504,0.977,13.672
1790598185.568628,-7.324,-41.504,8.789,32.715
1790598185.572496,3.906,-41.016,24.414,5.371
1790598185.576365,4.395,-51.758,10.742,-9.277
1790598185.580233,4.883,-46.875,7.324,-2.441
1790598185.584833,23.926,-34.180,11.230,17.090
1790598185.588702,18.066,-41.504,2.930,-5.859
1790598185.592571,-22.461,-40.527,-0.977,-27.344
1790598185.596439,-30.762,-43.945,-5.371,-10.742
1790598185.600308,9.766,-43.945,-1.953,27.344
1790598185.604177,16.602,-33.203,3.906,21.484
1790598185.608045,10.254,-26.367,-3.906,-12.695
1790598185.611914,5.859,-23.926,-8.301,8.789
1790598185.615783,0.000,-33.691,4.883,40.527
1790598185.619652,33.691,-31.250,-0.488,30.762
1790598185.623520,7.324,-33.203,2.930,-18.555
1790598185.627389,-30.273,-47.852,8.301,-20.020
1790598185.631617,-22.949,-46.387,-13.672,-11.719
1790598185.635486,0.977,-39.551,-26.855,3.906
1790598185.639355,8.301,-44.922,-8.789,12.207
1790598185.643224,-27.344,-37.109,1.465,-24.902
1790598185.647093,-40.527,-30.273,-4.883,-26.367
1790598185.650962,-23.438,-38.574,-12.207,9.766
1790598185.654831,-4.395,-36.621,-2.441,-7.324
1790598185.658700,-35.156,-40.527,8.301,-37.598
1790598185.662569,-55.664,-37.598,14.648,-5.859
1790598185.666437,-33.203,-45.898,1.953,13.672
1790598185.670306,-21.484,-62.500,-20.508,-8.301
1790598185.674176,-43.945,-64.941,-14.648,-31.738
1790598185.678386,-47.363,-56.152,-8.789,-31.738
1790598185.682255,-28.809,-58.105,-23.438,-17.090
1790598185.686124,-8.789,-63.477,-31.250,-2.930
1790598185.689993,-8.789,-62.500,-21.484,-39.551
1790598185.693862,-45.410,-76.172,-33.691,-55.664
1790598185.697731,-48.828,-80.078,-44.922,-24.902
1790598185.701601,-26.367,-76.172,-29.785,8.301
1790598185.705470,-18.555,-77.637,-17.090,-41.992
1790598185.709339,-25.879,-82.520,-19.043,-60.547
1790598185.713208,-41.016,-91.797,-22.461,-20.996
1790598185.717077,-41.504,-90.820,-27.344,-14.160
1790598185.720947,-31.738,-79.590,-21.973,-22.461
1790598185.725394,-37.109,-62.500,-20.508,-43.457
1790598185.729264,-41.504,-62.012,-17.090,-53.711
1790598185.733133,-35.156,-64.941,-4.883,-25.879
1790598185.737003,-21.973,-55.176,-6.348,-14.160
1790598185.740872,-17.090,-53.223,-5.859,-26.855
1790598185.744742,-30.762,-54.199,-5.371,-20.996
1790598185.748611,-25.391,-59.082,-1.465,-18.066
1790598185.752481,-6.836,-62.500,3.418,-21.973
1790598185.756350,-8.789,-68.848,-6.836,-41.504
1790598185.760220,-41.504,-79.102,-18.555,-41.504
1790598185.764089,-60.547,-85.449,-16.113,-34.668
1790598185.767959,-13.672,-75.195,-19.531,-15.137
1790598185.772354,11.230,-59.082,-21.973,-25.879
1790598185.776224,-38.086,-68.359,-11.719,-51.758
1790598185.780094,-57.129,-76.172,-14.648,-44.922
1790598185.783964,-42.969,-74.707,-24.414,-27.344
1790598185.787833,-22.949,-69.824,-23.926,-38.086
1790598185.791703,-17.090,-53.223,-15.137,-39.062
1790598185.795573,-41.504,-52.734,-5.371,-13.184
1790598185.799443,-20.996,-55.176,-6.348,12.695
1790598185.803313,43.457,-35.156,-3.418,24.902
1790598185.807183,33.691,-32.227,8.789,-4.883
1790598185.811052,-16.602,-45.410,12.695,-15.137
1790598185.814922,-9.766,-57.129,-9.277,-6.348
1790598185.819301,1.953,-60.547,-19.531,-11.719
1790598185.823172,-18.066,-51.758,-3.906,-12.695
1790598185.827042,-54.199,-61.035,-9.277,-32.227
1790598185.830912,-46.875,-66.895,-20.508,-41.016
1790598185.834782,-9.766,-57.617,-17.578,-4.395
1790598185.838652,-3.906,-62.500,-14.160,-14.160
1790598185.842522,-16.602,-62.012,-10.254,-62.500
1790598185.846392,-15.625,-61.035,-6.836,-37.109
1790598185.850262,7.324,-63.477,-3.906,41.504
1790598185.854132,-15.625,-63.477,7.812,14.160
1790598185.858002,-54.199,-67.871,15.625,-32.715
1790598185.861872,-41.992,-54.688,11.719,-19.531
1790598185.866211,-20.508,-45.898,5.371,-22.461
1790598185.870081,-21.484,-65.430,-0.977,-28.809
1790598185.873951,-33.691,-74.707,-14.648,-65.430
1790598185.877822,-27.344,-73.242,-19.531,-74.219
1790598185.881692,-17.090,-69.336,-5.859,-23.438
1790598185.885563,-14.160,-63.477,-19.043,21.973
1790598185.889433,-17.090,-65.430,-24.902,-12.207
1790598185.893303,-45.410,-58.105,-9.766,-28.809
1790598185.897174,-43.945,-58.594,-6.836,-24.414
1790598185.901044,-21.484,-61.523,-11.719,-22.949
1790598185.904914,-14.160,-58.105,-8.789,-31.738
1790598185.908785,-31.738,-61.035,-16.113,-60.547
1790598185.913089,0.000,-57.617,-15.137,-62.988
1790598185.916959,0.000,-50.781,-8.301,-28.809
1790598185.920830,0.000,-47.363,-23.438,-12.207
1790598185.924700,0.000,-48.340,-20.996,-41.016
1790598185.928571,0.000,-53.711,-19.043,-41.016
1790598185.932442,0.000,-51.270,-21.484,-22.949
1790598185.936312,0.000,-35.156,-7.812,6.836
1790598185.940183,0.000,-33.691,0.000,7.324
1790598185.944054,0.000,-49.316,14.160,-42.480
1790598185.947924,0.000,-53.223,10.742,-38.574
1790598185.951795,0.000,-41.016,-3.418,14.160
1790598185.955665,0.000,-34.668,3.906,-2.930
1790598185.959949,-16.602,-36.621,11.719,-18.555
1790598185.963820,-3.418,-31.250,6.348,19.531
1790598185.967691,33.691,-21.973,11.230,63.965
1790598185.971562,51.758,-19.531,11.719,38.574
1790598185.975433,25.879,-23.438,12.695,1.465
1790598185.979304,14.648,-40.527,11.719,-8.301
1790598185.983175,28.809,-53.223,-3.418,-0.488
1790598185.987045,-13.184,-60.547,-4.395,1.953
1790598185.990916,-40.039,-61.523,17.090,-41.504
1790598185.994787,-45.898,-60.059,17.578,-42.480
1790598185.998658,-37.109,-66.895,8.789,-12.695
1790598186.002529,16.113,-52.246,17.090,15.137
1790598186.006742,6.348,-52.246,30.762,-7.812
1790598186.010613,-56.641,-61.523,18.555,-41.992
1790598186.014484,-38.574,-54.688,2.441,-12.695
1790598186.018355,-6.836,-59.082,1.953,30.762
1790598186.022226,-10.742,-62.012,3.906,-12.207
1790598186.026097,-32.227,-47.363,-1.465,-50.293
1790598186.029968,-41.504,-50.781,-21.484,-21.973
1790598186.033839,-10.742,-61.035,-15.137,3.418
1790598186.037710,24.902,-47.852,-0.977,-4.883
1790598186.041581,12.695,-37.109,0.977,-24.414
1790598186.045452,-3.906,-36.133,4.395,-17.578
1790598186.049323,-0.488,-44.434,8.789,0.488
1790598186.053480,15.137,-48.828,11.719,4.395
1790598186.057351,-12.695,-54.199,7.812,-34.668
1790598186.061223,-53.711,-68.848,3.906,-62.012
1790598186.065094,-20.996,-61.035,6.348,-27.832
1790598186.068965,8.301,-45.410,9.766,-11.719
1790598186.072836,14.648,-33.691,15.137,-2.441
1790598186.076707,-12.695,-34.180,18.066,-15.137
1790598186.080578,-22.949,-34.180,22.949,-11.230
1790598186.084450,15.137,-28.320,17.578,23.438
1790598186.088321,29.785,-26.367,1.465,3.418
1790598186.092192,3.906,-29.785,4.395,-46.875
1790598186.096063,-27.832,-37.598,12.207,-58.105
1790598186.100499,-13.672,-40.039,4.883,5.371
1790598186.104370,5.859,-35.156,9.766,30.762
1790598186.108242,-23.926,-35.156,17.578,-5.859
1790598186.112113,-42.969,-36.133,13.672,-6.836
1790598186.115985,4.883,-27.344,-0.977,2.930
1790598186.119856,43.457,-20.996,-20.020,34.668
1790598186.123728,20.508,-36.621,-4.883,12.695
1790598186.127599,-1.465,-44.922,17.578,0.488
1790598186.131471,15.625,-29.297,-3.418,27.344
1790598186.135342,18.555,-17.090,-21.484,1.465
1790598186.139214,-9.766,-21.484,-4.395,-51.270
1790598186.143085,-26.367,-14.160,5.859,-49.805
1790598186.147454,-26.367,-7.324,-8.789,-27.832
1790598186.151326,-19.531,-28.809,-27.832,-14.648
1790598186.155198,-1.953,-35.645,-28.809,-32.715
1790598186.159070,-8.789,-23.438,-45.410,-75.195
1790598186.162941,-14.648,-6.836,-53.223,-47.852
1790598186.166813,0.000,-14.160,-53.711,-39.062
1790598186.170685,3.906,-20.508,-41.016,-66.895
1790598186.174556,-13.184,-11.719,-28.809,-79.102
1790598186.178428,-21.973,-7.324,-46.387,-70.801
1790598186.182300,-32.227,-9.766,-58.105,-52.246
1790598186.186172,-11.230,-10.254,-54.688,-58.594
1790598186.190044,-0.977,-9.277,-52.246,-83.496
1790598186.194374,-35.645,-6.836,-50.293,-99.609
1790598186.198246,-32.227,0.000,-50.781,-63.477
1790598186.202118,-23.926,-7.324,-50.781,-17.578
1790598186.205990,-35.645,-24.414,-62.012,-42.480
1790598186.209862,-30.273,-30.273,-70.801,-73.730
1790598186.213734,-10.742,-30.273,-59.570,-59.570
1790598186.217606,12.207,-28.320,-54.688,-31.738
1790598186.221478,27.832,-22.461,-48.340,-4.395
1790598186.225350,14.160,-13.672,-30.273,-16.113
1790598186.229222,-21.484,-25.391,-22.949,-41.016
1790598186.233094,-5.371,-29.297,-29.297,-16.113
1790598186.236966,21.484,-29.297,-25.391,9.766
1790598186.241256,1.465,-33.203,-7.324,-27.832
1790598186.245128,-16.113,-20.996,-2.441,-50.293
1790598186.249000,7.812,-18.066,-11.719,0.977
1790598186.252872,46.387,-13.672,-10.742,31.738
1790598186.256745,22.461,-20.508,-7.812,3.906
1790598186.260617,-27.832,-28.809,-7.324,-14.160
1790598186.264489,-18.066,-26.855,-11.230,-27.344
1790598186.268361,29.785,-20.020,-12.207,1.465
1790598186.272233,32.715,-14.648,-6.348,2.930
1790598186.276106,-2.930,-20.996,-14.648,-46.387
1790598186.279978,-29.297,-33.691,-25.879,-39.062
1790598186.283850,-23.438,-40.527,-34.668,4.883
1790598186.288108,-3.418,-45.410,-36.621,0.977
1790598186.291980,-9.766,-53.711,-30.273,-22.461
1790598186.295853,-9.766,-47.852,-26.855,-19.531
1790598186.299725,5.859,-35.645,-21.484,-9.766
1790598186.303597,31.250,-32.227,-15.625,20.996
1790598186.307470,29.785,-26.367,-3.906,6.836
1790598186.311342,10.254,-22.461,-4.883,-4.883
1790598186.315215,8.789,-29.297,-11.230,20.996
1790598186.319087,13.672,-32.715,6.348,9.766
1790598186.322960,10.254,-32.715,20.996,-23.438
1790598186.326832,-21.484,-41.016,13.184,-33.203
1790598186.330705,-16.113,-48.828,-6.348,-27.832
1790598186.334959,0.000,-45.898,-8.789,-6.348
1790598186.338832,-4.395,-35.645,-0.488,-17.090
1790598186.342704,-30.273,-34.668,0.977,-48.828
1790598186.346577,-51.758,-38.574,4.395,-41.504
1790598186.350450,-0.977,-37.598,7.324,-13.672
1790598186.354322,40.039,-32.227,9.766,19.531
1790598186.358195,1.953,-36.133,3.418,-3.418
1790598186.362067,-40.039,-43.945,-0.977,-30.273
1790598186.365940,-7.324,-36.621,12.695,0.977
1790598186.369813,29.297,-30.762,10.254,36.621
1790598186.373686,-10.254,-26.855,14.160,-12.695
1790598186.377558,-44.922,-21.973,22.949,-22.949
1790598186.381764,-13.672,-26.367,23.438,8.789
1790598186.385637,21.973,-31.738,17.090,26.855
1790598186.389510,4.395,-39.062,5.371,-6.836
1790598186.393383,-33.203,-42.969,5.859,-44.922
1790598186.397256,-28.809,-43.457,8.789,-17.090
1790598186.401129,24.414,-52.734,2.930,2.930
1790598186.405001,29.297,-57.129,-0.977,2.930
1790598186.408874,-24.902,-62.012,6.836,-30.762
1790598186.412747,-25.879,-66.895,5.859,-28.809
1790598186.416620,-14.160,-59.082,-10.254,3.906
1790598186.420493,-7.812,-54.199,-13.672,3.418
1790598186.424366,-14.160,-55.176,1.953,-13.184
1790598186.428525,-49.316,-57.617,0.000,-31.250
1790598186.432398,-40.527,-58.105,-1.465,-11.230
1790598186.436271,-4.883,-66.406,5.371,23.438
1790598186.440144,-12.695,-54.199,8.789,-7.812
1790598186.444017,-30.273,-44.922,2.930,-26.367
1790598186.447890,4.395,-43.945,-0.488,2.441
1790598186.451763,32.227,-35.645,9.277,46.875
1790598186.455636,6.836,-51.270,3.906,29.785
1790598186.459509,-50.781,-68.848,-13.184,-31.250
1790598186.463382,-53.711,-70.312,-13.184,-23.926
1790598186.467255,-7.324,-61.035,-5.859,20.020
1790598186.471128,23.438,-57.617,-4.395,16.602
1790598186.475545,-4.395,-65.430,-11.230,-26.855
1790598186.479418,-61.523,-70.801,-20.020,-25.879
1790598186.483291,-52.734,-64.453,-23.438,8.789
1790598186.487164,-12.207,-57.617,-28.320,3.418
1790598186.491038,-12.695,-65.918,-31.250,-22.949
1790598186.494911,-38.574,-80.566,-39.062,-46.875
1790598186.498784,-42.969,-75.195,-29.785,-31.250
1790598186.502658,-4.883,-61.035,-13.184,5.859
1790598186.506531,5.371,-56.641,-21.973,-3.906
1790598186.510404,-21.484,-45.410,-28.320,-14.160
1790598186.514277,-26.367,-51.758,-7.812,-8.301
1790598186.518151,-14.160,-68.359,-0.977,1.953
1790598186.522544,0.000,-68.359,-14.160,0.977
1790598186.526418,0.000,-58.105,-8.301,-14.160
1790598186.530292,0.000,-53.223,2.930,-43.457
1790598186.534165,0.000,-46.387,4.395,-17.578
1790598186.538038,0.000,-50.293,-11.230,-11.230
1790598186.541912,0.000,-55.176,-20.996,-22.949
1790598186.545786,0.000,-48.828,-20.020,-23.438
1790598186.549659,0.000,-58.594,-22.949,-22.949
1790598186.553533,0.000,-66.406,-18.555,15.625
1790598186.557406,0.000,-65.918,-14.648,0.000
1790598186.561280,0.000,-62.500,-8.789,-50.293
1790598186.565153,0.000,-41.504,-6.348,-23.926
1790598186.569465,-19.531,-36.621,-2.441,18.555
1790598186.573339,-33.691,-50.781,5.371,-0.488
1790598186.577212,-53.223,-52.734,4.395,-25.879
1790598186.581086,-29.297,-51.270,-2.930,-9.766
1790598186.584960,7.812,-43.945,-0.977,27.344
1790598186.588834,23.926,-32.715,8.789,21.973
1790598186.592707,-26.855,-34.668,12.207,-21.484
1790598186.596581,-57.129,-42.480,6.836,-24.902
1790598186.600455,-16.602,-34.668,-4.883,13.672
1790598186.604329,11.230,-34.180,-3.906,5.371
1790598186.608202,13.672,-47.363,-2.441,-33.203
1790598186.612076,-1.465,-58.105,-2.930,-3.906
1790598186.616625,-7.324,-56.641,14.160,37.598
1790598186.620499,2.441,-55.664,17.090,3.418
1790598186.624373,-17.578,-69.336,16.602,-52.734
1790598186.628247,-49.316,-73.242,18.555,-40.039
1790598186.632121,-57.617,-71.289,22.461,-5.859
1790598186.635995,-34.180,-69.824,20.020,11.719
1790598186.639869,-21.973,-69.824,20.020,1.953
1790598186.643744,-60.547,-72.266,20.020,-42.480
1790598186.647618,-51.758,-73.730,17.578,-24.414
1790598186.651492,-5.371,-73.730,27.832,11.719
1790598186.655366,-15.137,-69.824,35.156,-12.207
1790598186.659240,-38.574,-59.570,42.969,-12.695
1790598186.663503,-30.273,-53.711,47.363,-12.695
1790598186.667378,-1.465,-58.105,48.828,8.789
1790598186.671252,3.906,-64.941,52.734,54.199
1790598186.675127,-26.367,-78.613,53.223,12.207
1790598186.679001,-37.109,-76.172,41.016,-28.320
1790598186.682875,-12.207,-61.035,41.992,20.020
1790598186.686749,-1.465,-61.523,43.945,38.574
1790598186.690624,-22.461,-64.453,44.434,7.812
1790598186.694498,-61.035,-65.918,54.688,-10.254
1790598186.698372,-52.246,-62.988,53.223,-11.230
1790598186.702247,-4.883,-58.105,29.785,34.668
1790598186.706121,-15.137,-63.965,13.184,10.254
1790598186.710341,-51.270,-59.082,30.762,-25.879
1790598186.714215,-32.715,-51.270,31.738,-5.859
1790598186.718090,8.789,-56.641,15.625,-1.953
1790598186.721964,21.484,-53.711,19.043,5.859
1790598186.725839,0.000,-44.434,23.438,-0.488
1790598186.729713,-24.414,-54.199,15.625,-10.254
1790598186.733588,-3.906,-70.312,-0.488,43.457
1790598186.737462,25.391,-54.199,-4.395,85.938
1790598186.741337,-9.766,-43.945,13.672,17.578
1790598186.745211,-49.805,-55.176,13.184,-41.016
1790598186.749086,-35.645,-61.035,11.230,-42.969
1790598186.752960,0.488,-55.664,13.184,-13.672
1790598186.757112,-2.930,-50.781,10.254,-19.043
1790598186.760987,-29.297,-61.523,-7.324,-29.785
1790598186.764861,-42.480,-74.707,-14.160,-22.949
1790598186.768736,-11.230,-79.590,-8.789,8.301
1790598186.772610,12.207,-72.754,-7.812,8.301
1790598186.776485,-23.926,-71.777,-7.324,-29.297
1790598186.780360,-12.207,-61.035,-4.395,-28.809
1790598186.784234,25.391,-58.105,-6.348,3.906
1790598186.788109,23.926,-67.383,-6.836,0.488
1790598186.791984,-16.602,-67.383,-12.207,-18.555
1790598186.795858,-32.715,-65.430,-13.672,-17.578
1790598186.799733,-1.953,-59.570,2.930,-5.859
1790598186.804105,24.902,-49.805,16.113,30.762
1790598186.807980,22.461,-46.875,16.113,-3.418
1790598186.811855,-26.367,-56.152,-1.953,-53.223
1790598186.815729,-41.992,-53.223,3.418,-13.184
1790598186.819604,0.488,-46.875,4.395,32.227
1790598186.823479,16.113,-46.387,-9.277,3.418
1790598186.827354,-31.738,-48.340,0.977,-23.438
1790598186.831229,-41.992,-58.105,-2.930,-50.293
1790598186.835104,0.977,-55.664,-15.137,-25.879
1790598186.838979,11.230,-58.594,-16.113,4.395
1790598186.842854,-31.738,-59.570,-5.859,-27.344
1790598186.846729,-41.992,-51.758,1.953,-43.457
1790598186.851080,12.695,-49.805,-9.766,-5.371
1790598186.854955,37.109,-43.457,-4.395,35.156
1790598186.858830,-23.926,-35.645,16.602,-26.367
1790598186.862705,-69.336,-43.945,-2.441,-64.941
1790598186.866580,-18.555,-50.293,-18.066,-22.949
1790598186.870455,36.621,-39.062,-1.953,3.418
1790598186.874331,17.578,-39.062,5.371,-8.789
1790598186.878206,-21.973,-50.781,6.836,-26.367
1790598186.882081,11.719,-40.527,12.695,-6.348
1790598186.885956,47.363,-21.973,19.043,21.973
1790598186.889831,9.277,-35.645,28.809,11.719
1790598186.893706,-22.461,-41.992,18.555,-21.484
1790598186.898024,-18.066,-34.180,3.906,-24.414
1790598186.901899,21.484,-35.645,12.207,34.180
1790598186.905775,32.715,-43.457,13.184,20.020
1790598186.909650,-9.766,-46.875,0.000,-49.805
1790598186.913525,-2.930,-51.270,1.953,-43.945
1790598186.917401,19.531,-54.688,-1.953,3.906
1790598186.921276,0.977,-53.711,-6.348,0.977
1790598186.925151,-21.484,-43.457,6.348,-31.738
1790598186.929027,-19.531,-33.203,4.883,-9.766
1790598186.932902,-9.766,-40.527,4.395,19.043
1790598186.936777,7.324,-55.664,13.672,4.395
1790598186.940653,-0.977,-61.035,7.324,-25.879
1790598186.944940,-45.410,-56.152,5.859,-49.805
1790598186.948816,-32.715,-48.828,8.301,-11.230
1790598186.952691,0.977,-56.152,9.766,33.691
1790598186.956567,3.418,-56.152,12.695,23.438
1790598186.960443,-13.672,-42.969,14.160,-12.695
1790598186.964318,-26.855,-36.621,19.531,6.836
1790598186.968194,0.488,-39.551,17.578,49.316
1790598186.972069,26.367,-41.504,14.648,38.574
1790598186.975945,-11.230,-39.551,9.766,-12.207
1790598186.979820,-44.922,-54.688,1.953,-53.223
1790598186.983696,-6.348,-66.406,4.395,-28.809
1790598186.987571,37.598,-42.969,10.254,4.395
1790598186.991822,10.254,-35.645,19.531,-18.555
1790598186.995698,-28.320,-42.969,24.902,-41.992
1790598186.999574,-3.418,-33.691,29.297,-12.695
1790598187.003450,57.617,-25.391,26.855,18.066
1790598187.007325,48.828,-25.879,11.719,-3.906
1790598187.011201,-18.066,-33.203,10.254,-32.227
1790598187.015077,-26.367,-37.598,20.020,-12.207
1790598187.018953,18.066,-33.691,17.578,29.785
1790598187.022828,8.301,-42.480,15.625,17.578
1790598187.026704,-36.621,-45.898,34.668,-15.137
1790598187.030580,-10.742,-26.367,34.180,-4.395
1790598187.034456,51.758,-8.789,20.020,40.527
1790598187.038658,59.570,-3.418,21.484,40.527
1790598187.042534,9.277,0.488,34.180,-5.859
1790598187.046410,-11.230,-8.789,34.180,7.812
1790598187.050286,4.883,-33.691,14.160,22.949
1790598187.054162,15.137,-45.410,0.488,15.625
1790598187.058038,-8.301,-41.992,-0.977,-8.301
1790598187.061913,-18.555,-38.086,-4.395,-29.785
1790598187.065789,11.230,-39.551,-11.230,16.602
1790598187.069665,33.203,-53.711,-15.137,11.230
1790598187.073541,10.254,-55.664,-9.277,-39.551
1790598187.077417,-31.738,-44.434,1.465,-33.203
1790598187.081293,-29.297,-42.480,2.441,-3.418
1790598187.085477,0.000,-41.504,6.348,37.109
1790598187.089353,0.000,-42.969,7.812,14.648
1790598187.093229,0.000,-47.363,2.441,-45.898
1790598187.097105,0.000,-55.664,-3.418,-39.551
1790598187.100981,0.000,-55.176,2.441,27.832
1790598187.104857,0.000,-55.664,3.418,11.230
1790598187.108733,0.000,-62.988,-3.418,-40.527
1790598187.112609,0.000,-66.406,-14.648,-46.387
1790598187.116485,0.000,-73.730,-14.160,-41.016
1790598187.120362,0.000,-65.430,-20.020,-22.949
1790598187.124238,0.000,-60.059,-27.344,-38.574
1790598187.128114,0.000,-64.453,-18.555,-68.359
1790598187.132252,-48.340,-66.895,-19.043,-50.293
1790598187.136128,-5.859,-75.195,-37.598,-3.418
1790598187.140004,-40.527,-83.008,-36.621,-25.879
1790598187.143880,-106.934,-76.172,-20.996,-78.125
1790598187.147756,-80.078,-69.824,-22.949,-80.566
1790598187.151633,-0.977,-78.613,-31.250,-37.109
1790598187.155509,11.230,-68.848,-29.785,6.348
1790598187.159385,-69.336,-56.641,-22.461,-62.988
1790598187.163261,-104.004,-61.523,-23.926,-85.938
1790598187.167137,-54.688,-61.035,-29.785,-32.715
1790598187.171013,-10.742,-56.152,-35.645,-30.762
1790598187.174889,-26.855,-50.781,-27.832,-63.965
1790598187.179038,0.000,-51.270,-15.137,-65.430
1790598187.182914,0.000,-47.363,-8.301,-17.090
1790598187.186790,0.000,-35.156,16.113,23.926
1790598187.190667,0.000,-44.922,20.996,-15.137
1790598187.194543,0.000,-52.734,-0.488,-32.715
1790598187.198419,0.000,-46.875,-3.418,-1.465
1790598187.202296,0.000,-36.133,6.348,16.602
1790598187.206172,0.000,-26.855,18.066,-2.930
1790598187.210048,0.000,-24.902,26.855,-25.391
1790598187.213924,0.000,-30.762,10.254,-12.695
1790598187.217801,0.000,-45.898,-1.953,12.207
1790598187.221677,0.000,-33.203,13.184,18.066
1790598187.226029,-9.277,-20.996,9.277,-24.414
1790598187.229906,-41.992,-34.180,-7.812,-38.574
1790598187.233782,-20.996,-37.109,7.812,15.137
1790598187.237659,42.480,-32.715,22.461,21.484
1790598187.241535,39.062,-32.715,20.996,-27.344
1790598187.245412,-22.949,-32.715,12.207,-22.461
1790598187.249288,-20.996,-36.621,0.977,-11.230
1790598187.253165,19.043,-46.387,2.441,23.926
1790598187.257041,1.465,-56.152,0.977,23.438
1790598187.260918,-12.207,-47.852,-2.441,-29.297
1790598187.264794,-0.488,-30.762,13.672,-14.648
1790598187.268671,21.973,-29.297,16.602,18.555
1790598187.272990,20.996,-38.574,13.672,6.836
1790598187.276867,-12.695,-35.156,16.602,-38.086
1790598187.280743,-49.316,-31.250,18.555,-32.227
1790598187.284620,-11.719,-41.992,6.836,26.855
1790598187.288497,59.570,-36.621,-1.465,34.180
1790598187.292374,6.836,-38.574,0.488,-16.602
1790598187.296250,17.578,-36.621,9.766,0.000
1790598187.300127,62.500,-29.785,11.719,14.160
1790598187.304004,27.344,-41.504,-6.348,25.391
1790598187.307880,-26.855,-46.387,4.395,3.906
1790598187.311757,-57.617,-36.621,14.160,-55.664
1790598187.315634,-41.504,-20.996,19.043,-20.996
1790598187.319936,1.465,-12.695,30.273,31.738
1790598187.323813,-4.883,-12.695,22.461,27.344
1790598187.327690,-21.484,-21.973,17.090,-31.250
1790598187.331567,-10.742,-27.344,15.137,-58.594
1790598187.335443,12.207,-27.832,10.254,-0.977
1790598187.339320,-20.996,-36.621,11.230,17.090
1790598187.343197,-84.961,-48.340,11.230,-56.152
1790598187.347074,-76.660,-48.340,-5.859,-47.363
1790598187.350951,-10.742,-48.340,-14.160,20.020
1790598187.354828,21.973,-49.805,8.301,-9.277
1790598187.358705,-43.945,-38.574,21.973,-64.941
1790598187.362582,-73.242,-35.645,10.254,-62.012
1790598187.366838,-26.367,-37.598,9.766,-11.719
1790598187.370715,9.766,-26.855,20.996,11.719
1790598187.374592,-45.898,-25.391,22.949,-14.160
1790598187.378469,-87.402,-30.273,17.090,-39.551
1790598187.382346,-42.480,-38.086,10.254,-40.527
1790598187.386223,18.066,-39.062,19.531,15.625
1790598187.390100,-21.973,-38.574,24.414,4.883
1790598187.393977,-87.891,-39.062,17.090,-49.316
1790598187.397855,-65.918,-31.738,22.949,-8.789
1790598187.401731,22.461,-36.621,30.762,37.109
1790598187.405609,38.086,-44.434,24.414,21.973
1790598187.409486,-67.871,-54.199,9.766,-29.785
1790598187.413705,-83.496,-51.270,19.043,-51.758
1790598187.417582,23.438,-32.715,16.113,-17.090
1790598187.421460,61.523,-30.273,-15.625,-14.648
1790598187.425337,-63.965,-46.387,-18.555,-79.102
1790598187.429214,-131.348,-58.594,2.930,-86.914
1790598187.433091,-48.340,-51.270,4.883,-26.367
1790598187.436969,57.129,-43.457,3.906,35.645
1790598187.440846,-17.578,-42.969,-7.812,11.719
1790598187.444723,-105.957,-42.480,-1.953,-55.664
1790598187.448601,-62.500,-54.688,0.977,-29.785
1790598187.452478,37.109,-57.617,-13.672,53.223
1790598187.456355,24.902,-41.992,-4.395,4.395
1790598187.460570,-66.895,-47.363,12.695,-92.773
1790598187.464448,-27.832,-47.363,18.066,-68.848
1790598187.468325,80.078,-23.926,18.555,20.508
1790598187.472203,54.199,-19.043,12.695,28.320
1790598187.476080,-83.008,-26.367,3.906,-34.668
1790598187.479957,-91.797,-32.227,10.254,-45.898
1790598187.483835,24.902,-33.691,19.531,25.879
1790598187.487712,84.961,-30.762,16.602,75.684
1790598187.491590,-42.480,-43.945,17.090,-28.809
1790598187.495467,-106.934,-46.387,12.207,-67.871
1790598187.499345,-16.602,-30.762,16.602,-14.160
1790598187.503222,64.453,-31.738,19.043,18.066
1790598187.507379,-4.395,-33.691,6.348,-26.855
1790598187.511256,-100.098,-34.180,-3.418,-70.801
1790598187.515134,-51.270,-46.875,-0.977,-34.180
1790598187.519011,55.664,-58.105,6.836,58.594
1790598187.522889,43.457,-51.270,-3.418,13.672
1790598187.526767,-64.941,-42.969,-17.090,-85.938
1790598187.530644,-53.223,-35.645,-3.418,-43.457
1790598187.534522,53.711,-43.457,23.926,11.230
1790598187.538399,69.824,-45.898,15.625,3.906
1790598187.542277,-55.176,-32.227,2.441,-40.527
1790598187.546154,-108.887,-41.504,13.672,-43.945
1790598187.550032,-16.602,-47.363,17.578,27.344
1790598187.554179,0.000,-40.039,12.207,56.152
1790598187.558057,0.000,-38.574,8.789,-41.504
1790598187.561935,0.000,-43.457,15.625,-54.688
1790598187.565813,0.000,-45.410,20.020,11.230
1790598187.569690,0.000,-29.297,31.738,62.500
1790598187.573568,0.000,-6.836,24.902,35.645
1790598187.577446,0.000,-16.602,7.812,-11.230
1790598187.581323,0.000,-29.785,10.254,-13.672
1790598187.585201,0.000,-29.785,17.090,36.133
1790598187.589079,0.000,-36.621,13.672,40.527
1790598187.592956,0.000,-48.828,6.348,-32.227
1790598187.596834,0.000,-56.641,5.371,-41.016
1790598187.601164,37.109,-54.199,0.000,37.109
1790598187.605042,95.703,-45.410,0.000,46.387
1790598187.608920,-7.324,-34.668,0.000,-24.902
1790598187.612798,-80.078,-36.133,0.000,-45.410
1790598187.616676,-16.113,-44.434,0.000,12.695
1790598187.620553,73.242,-38.086,0.000,83.984
1790598187.624431,-1.953,-32.227,0.000,-9.766
1790598187.628309,-95.703,-28.809,0.000,-70.801
1790598187.632187,-14.160,-27.344,0.000,21.973
1790598187.636065,104.004,-26.855,0.000,108.887
1790598187.639943,29.297,-27.832,0.000,22.461
1790598187.643821,-86.914,-25.879,0.000,-41.992
1790598187.648120,0.000,-17.090,41.992,-6.836
1790598187.651998,0.000,-15.625,45.410,36.133
1790598187.655876,0.000,-17.090,38.574,39.062
1790598187.659754,0.000,-20.508,21.973,-32.227
1790598187.663632,0.000,-25.391,23.926,-27.832
1790598187.667510,0.000,-25.879,36.621,44.434
1790598187.671388,0.000,-26.367,31.738,54.688
1790598187.675266,0.000,-29.785,15.137,-51.270
1790598187.679144,0.000,-21.973,18.555,-43.945
1790598187.683022,0.000,-16.113,37.109,35.156
1790598187.686900,0.000,-21.973,54.199,33.203
1790598187.690778,0.000,-19.043,42.969,1.465
1790598187.695033,-83.496,-19.531,24.902,-38.574
1790598187.698912,-42.480,-31.738,18.555,-27.832
1790598187.702790,67.383,-42.480,13.184,19.043
1790598187.706668,37.109,-52.246,11.719,2.441
1790598187.710546,-79.102,-49.316,6.836,-53.711
1790598187.714425,-67.871,-38.086,19.531,-46.387
1790598187.718303,32.227,-40.039,28.320,23.926
1790598187.722181,54.199,-40.039,22.949,41.016
1790598187.726059,-59.570,-32.227,13.184,-46.387
1790598187.729938,-100.586,-37.109,19.531,-63.965
1790598187.733816,-16.113,-53.223,23.438,17.090
1790598187.737694,62.012,-43.945,13.184,65.430
1790598187.741899,-32.715,-31.250,8.789,-23.926
1790598187.745777,-97.656,-26.855,8.789,-34.668
1790598187.749656,-25.391,-28.320,-4.883,7.324
1790598187.753534,67.871,-37.598,-8.301,19.531
1790598187.757413,2.930,-56.641,-23.926,-38.086
1790598187.761291,-120.605,-63.965,-32.715,-110.840
1790598187.765169,-80.078,-49.805,-17.090,-77.637
1790598187.769048,50.781,-46.387,-9.277,-20.508
1790598187.772926,25.879,-58.105,-16.113,-37.598
1790598187.776804,-126.953,-64.453,-21.973,-99.121
1790598187.780683,-140.625,-71.777,-18.555,-78.125
1790598187.784561,-10.742,-72.754,-17.578,-6.348
1790598187.788777,0.000,-58.105,-5.859,9.277
1790598187.792655,0.000,-58.594,-6.836,-80.078
1790598187.796534,0.000,-61.035,-16.113,-87.402
1790598187.800413,0.000,-54.199,-9.766,-14.160
1790598187.804291,0.000,-52.246,-3.906,40.527
1790598187.808170,0.000,-52.246,-4.883,-13.184
1790598187.812048,0.000,-49.316,-2.441,-52.246
1790598187.815927,0.000,-37.109,4.883,13.672
1790598187.819805,0.000,-36.621,19.043,53.223
1790598187.823684,0.000,-41.992,7.812,-5.859
1790598187.827562,0.000,-39.062,-15.625,-78.613
1790598187.831441,0.000,-41.504,-7.812,-83.008
1790598187.835608,38.086,-46.387,7.812,-25.879
1790598187.839486,48.828,-45.898,7.812,-9.766
1790598187.843365,-68.359,-43.945,-0.977,-61.523
1790598187.847244,-92.285,-50.293,-6.836,-72.754
1790598187.851122,19.043,-43.457,2.441,-6.836
1790598187.855001,80.078,-36.621,11.719,29.297
1790598187.858880,1.953,-28.809,8.301,-0.488
1790598187.862758,-46.387,-18.066,12.695,-24.414
1790598187.866637,-2.930,-26.855,33.203,-7.812
1790598187.870516,83.008,-22.949,41.016,51.758
1790598187.874394,-2.441,-23.438,26.367,-26.367
1790598187.878273,-126.465,-42.969,-0.488,-79.590
1790598187.882405,-82.520,-52.246,-10.254,-43.457
1790598187.886284,56.152,-54.688,2.930,-8.789
1790598187.890163,41.992,-56.641,4.395,-12.695
1790598187.894042,-112.793,-51.270,3.906,-58.105
1790598187.897920,-85.938,-49.805,16.602,-42.969
1790598187.901799,47.363,-47.852,17.090,23.438
1790598187.905678,68.359,-37.109,18.066,25.391
1790598187.909557,-34.180,-35.645,20.996,-63.965
1790598187.913435,-51.758,-34.180,27.832,-52.734
1790598187.917314,70.801,-20.996,31.738,34.180
1790598187.921193,124.023,-16.602,21.973,58.594
1790598187.925072,-27.344,-22.461,12.695,-26.855
1790598187.929187,-79.590,-28.320,17.578,-78.125
1790598187.933066,19.531,-32.715,22.461,4.883
1790598187.936945,104.492,-35.156,22.461,71.777
1790598187.940824,16.113,-29.785,15.625,29.785
1790598187.944703,-81.543,-12.207,16.602,-27.344
1790598187.948582,-19.531,-8.301,22.461,-2.441
1790598187.952461,98.633,-20.508,25.879,64.941
1790598187.956340,68.848,-31.250,28.809,20.020
1790598187.960218,-77.637,-40.527,22.461,-65.918
1790598187.964097,-72.266,-42.480,17.578,-29.297
1790598187.967976,42.969,-42.480,26.855,38.086
1790598187.971855,62.988,-46.387,19.531,11.230
1790598187.976159,0.000,-42.480,-5.859,-44.922
1790598187.980038,0.000,-38.574,-3.418,-32.715
1790598187.983917,0.000,-25.879,4.883,12.207
1790598187.987796,0.000,-18.555,6.836,49.805
1790598187.991675,0.000,-15.625,-1.953,-11.230
1790598187.995554,0.000,-14.160,-18.555,-52.734
1790598187.999433,0.000,-19.531,-11.230,-28.809
1790598188.003312,0.000,-29.297,0.488,-3.418
1790598188.007191,0.000,-26.367,-0.977,-26.367
1790598188.011070,0.000,-19.043,-3.418,-54.688
1790598188.014949,0.000,-24.414,1.465,-39.551
1790598188.018828,0.000,-37.598,3.906,9.766
1790598188.022471,-45.410,-41.016,-12.695,7.324
1790598188.026350,-52.734,-41.016,-22.949,-56.641
1790598188.030229,39.551,-47.363,-9.766,-70.312
1790598188.034108,109.863,-45.898,2.930,-1.953
1790598188.037987,37.598,-30.273,-1.953,19.531
1790598188.041866,-67.871,-31.738,-3.418,-61.523
1790598188.045745,-10.254,-39.062,5.371,-47.363
1790598188.049624,100.586,-28.320,-0.488,15.625
1790598188.053503,28.320,-34.180,2.441,36.133
1790598188.057382,-85.449,-30.273,3.906,-21.973
1790598188.061261,-55.176,-26.367,11.719,-72.266
1790598188.065140,63.965,-38.086,2.441,-26.855
1790598188.069397,86.914,-35.156,7.324,58.594
1790598188.073277,37.598,-35.156,20.508,36.621
1790598188.077156,-89.844,-31.738,8.789,-50.293
1790598188.081035,-54.688,-24.414,0.488,-63.965
1790598188.084914,61.035,-36.621,2.930,1.465
1790598188.088793,97.168,-34.668,-1.953,5.371
1790598188.092672,-42.969,-30.762,-10.742,-75.195
1790598188.096551,-86.914,-43.945,2.441,-57.129
1790598188.100430,40.527,-38.574,8.301,19.043
1790598188.104310,96.680,-24.902,23.438,54.688
1790598188.108189,-20.508,-11.230,27.832,-1.953
1790598188.112068,-66.895,-2.441,12.695,-48.828
1790598188.116299,23.438,-4.883,18.555,-0.488
1790598188.120178,100.098,-10.254,28.809,45.410
1790598188.124057,17.090,-13.672,10.742,-3.906
1790598188.127936,-84.961,-20.996,-0.977,-30.273
1790598188.131816,-29.297,-24.902,7.324,10.742
1790598188.135695,98.633,-15.137,10.254,56.641
1790598188.139574,85.449,-16.602,6.348,39.062
1790598188.143454,-48.828,-25.391,0.488,-55.664
1790598188.147333,-62.988,-31.250,0.977,-41.992
1790598188.151212,31.738,-37.109,4.883,36.133
1790598188.155091,50.293,-41.504,4.395,10.742
1790598188.158971,-68.848,-39.062,-8.789,-71.289
1790598188.163189,0.000,-49.805,-20.020,-100.586
1790598188.167068,0.000,-60.547,2.441,-13.184
1790598188.170948,0.000,-44.434,22.949,60.059
1790598188.174827,0.000,-32.715,12.207,-42.480
1790598188.178706,0.000,-30.273,7.812,-87.891
1790598188.182586,0.000,-34.668,8.789,-22.949
1790598188.186465,0.000,-41.504,14.160,27.344
1790598188.190345,0.000,-44.434,0.488,-17.578
1790598188.194224,0.000,-46.875,-19.043,-82.520
1790598188.198103,0.000,-56.152,-4.883,-53.223
1790598188.201983,0.000,-47.852,14.160,50.781
1790598188.205862,0.000,-33.203,8.789,17.578
1790598188.210039,-63.965,-30.762,13.672,-71.777
1790598188.213919,-69.336,-36.133,21.484,-79.102
1790598188.217798,42.480,-47.363,14.160,-37.109
1790598188.221678,54.688,-48.828,14.648,-4.883
1790598188.225557,-78.613,-52.734,8.789,-76.660
1790598188.229437,-134.766,-58.594,0.977,-78.613
1790598188.233316,-23.438,-48.340,-11.230,-10.254
1790598188.237196,77.148,-49.316,-15.137,48.828
1790598188.241076,-55.664,-66.406,-14.160,-51.758
1790598188.244955,-162.109,-68.359,-16.602,-118.652
1790598188.248835,-91.309,-64.453,-9.766,-57.617
1790598188.252714,33.203,-54.688,7.324,4.883
1790598188.256851,12.207,-42.969,5.859,-21.484
1790598188.260730,-96.191,-41.992,-4.883,-77.637
1790598188.264610,-69.824,-51.758,0.488,-42.969
1790598188.268490,26.855,-60.059,-0.977,32.227
1790598188.272369,31.250,-56.641,-8.789,27.832
1790598188.276249,-90.332,-61.523,-19.043,-72.754
1790598188.280129,-104.492,-60.547,-11.719,-65.430
1790598188.284008,0.488,-51.270,4.395,-4.883
1790598188.287888,53.223,-46.387,-0.488,0.000
1790598188.291768,-52.734,-43.945,-3.418,-55.176
1790598188.295647,-121.094,-50.293,-9.766,-70.801
1790598188.299527,-39.062,-57.617,-19.043,-25.391
1790598188.303625,57.129,-58.594,-9.277,4.395
1790598188.307505,6.836,-44.434,-6.348,-33.203
1790598188.311385,-110.352,-47.363,-21.484,-83.496
1790598188.315265,-87.891,-64.453,-20.996,-64.941
1790598188.319144,61.523,-59.082,-2.441,18.555
1790598188.323024,69.336,-41.992,-8.301,16.602
1790598188.326904,-83.008,-50.781,-20.020,-76.660
1790598188.330784,-101.074,-61.523,-8.789,-63.965
1790598188.334663,12.207,-45.898,3.418,32.715
1790598188.338543,43.945,-35.645,-9.766,31.738
1790598188.342423,-80.078,-41.504,-26.367,-61.523
1790598188.346303,-112.305,-43.945,-17.578,-76.172
1790598188.350608,0.000,-50.781,-9.766,-14.160
1790598188.354488,0.000,-47.363,-17.090,13.672
1790598188.358368,0.000,-45.898,-26.855,-57.129
1790598188.362248,0.000,-61.035,-36.133,-111.328
1790598188.366128,0.000,-64.941,-38.574,-45.410
1790598188.370008,0.000,-64.941,-27.832,36.133
1790598188.373888,0.000,-70.801,-30.273,-13.672
1790598188.377768,0.000,-61.035,-32.227,-95.703
1790598188.381648,0.000,-55.176,-23.438,-81.543
1790598188.385528,0.000,-55.664,-12.207,4.395
1790598188.389407,0.000,-45.410,-5.371,3.906
1790598188.393287,0.000,-44.434,-7.812,-64.941
1790598188.397578,-84.473,-45.410,-12.207,-55.176
1790598188.401458,36.133,-41.504,-7.324,20.996
1790598188.405338,84.473,-44.922,5.859,34.668
1790598188.409218,-52.246,-51.270,-6.348,-65.430
1790598188.413098,-89.844,-50.293,-12.695,-55.664
1790598188.416978,9.766,-37.598,4.395,19.043
1790598188.420858,110.840,-25.391,21.973,57.617
1790598188.424738,36.133,-24.902,12.207,-3.906
1790598188.428618,-77.148,-34.180,-4.395,-48.340
1790598188.432498,-34.668,-40.039,-1.953,-7.812
1790598188.436379,59.082,-40.527,6.348,33.691
1790598188.440259,18.066,-41.992,-0.488,-3.418
1790598188.444514,-108.398,-45.898,-13.672,-75.195
1790598188.448394,-71.777,-37.109,-11.230,-32.227
1790598188.452274,56.152,-39.062,2.930,44.922
1790598188.456154,66.895,-40.527,7.324,24.902
1790598188.460035,-26.855,-28.320,15.137,-58.105
1790598188.463915,-56.152,-23.926,22.949,-56.641
1790598188.467795,28.320,-20.020,19.043,3.906
1790598188.471675,86.914,-18.066,13.672,33.203
1790598188.475556,-9.277,-20.020,-7.324,-56.152
1790598188.479436,-81.543,-28.809,-10.254,-107.910
1790598188.483316,-25.391,-41.016,1.953,-24.414
1790598188.487196,52.734,-40.527,7.324,36.133
1790598188.491423,0.000,-42.480,0.000,-45.410
1790598188.495303,0.000,-52.246,0.000,-81.543
1790598188.499184,0.000,-41.504,0.000,-19.531
1790598188.503064,0.000,-35.156,0.000,49.316
1790598188.506945,0.000,-31.250,0.000,34.668
1790598188.510825,0.000,-17.578,0.000,-44.434
1790598188.514705,0.000,-18.555,0.000,-28.320
1790598188.518586,0.000,-21.973,0.000,56.641
1790598188.522466,0.000,-17.578,0.000,59.082
1790598188.526347,0.000,-21.484,0.000,-55.176
1790598188.530227,0.000,-31.738,0.000,-55.176
1790598188.534107,0.000,-29.297,0.000,28.809
1790598188.538285,74.707,-31.738,28.320,45.898
1790598188.542166,-38.574,-45.410,19.531,1.953
1790598188.546046,-107.910,-44.922,6.348,-32.715
1790598188.549927,-12.695,-33.691,17.090,-2.441
1790598188.553807,104.980,-16.113,37.109,65.430
1790598188.557688,46.387,-16.113,25.391,-3.418
1790598188.561568,-72.754,-22.949,16.113,-55.664
1790598188.565449,-38.574,-13.672,23.926,-11.719
1790598188.569329,92.285,-2.930,37.598,25.879
1790598188.573210,92.285,-5.859,34.180,19.531
1790598188.577090,-58.105,-15.137,30.762,-13.672
1790598188.580971,-91.797,-20.508,38.086,-9.277
1790598188.585116,26.367,-21.973,39.551,30.273
1790598188.588996,59.082,-25.879,30.273,41.992
1790598188.592877,-60.547,-27.344,20.996,-15.137
1790598188.596758,-88.867,-31.738,28.809,-13.672
1790598188.600638,-3.906,-39.551,24.902,20.508
1790598188.604519,92.285,-37.109,20.996,65.918
1790598188.608399,30.762,-23.438,19.531,16.602
1790598188.612280,-60.547,-23.926,18.555,-45.410
1790598188.616161,-32.715,-33.691,30.273,8.301
1790598188.620041,62.988,-39.062,31.250,74.707
1790598188.623922,22.461,-40.039,19.043,41.504
1790598188.627803,-67.871,-25.879,14.160,-4.395
1790598188.631941,-21.484,-20.996,13.672,4.395
1790598188.635822,97.168,-28.809,24.902,57.617
1790598188.639703,104.492,-28.320,27.344,72.754
1790598188.643583,-51.270,-34.180,22.949,-5.859
1790598188.647464,-78.125,-37.109,23.926,-12.207
1790598188.651345,42.480,-22.949,20.996,79.102
1790598188.655225,85.938,-23.926,7.324,87.402
1790598188.659106,-42.480,-42.480,6.348,-15.137
1790598188.662987,-64.453,-46.875,8.301,-41.992
1790598188.666867,39.062,-32.715,10.742,13.672
1790598188.670748,126.465,-27.344,24.902,76.660
1790598188.674629,38.574,-36.133,15.625,25.391
1790598188.678722,-81.055,-46.387,3.418,-36.621
1790598188.682603,-48.828,-53.223,-4.883,2.441
1790598188.686483,48.828,-57.617,-0.977,79.590
1790598188.690364,31.250,-50.293,16.113,41.504
1790598188.694245,-89.844,-53.223,12.695,-54.199
1790598188.698126,-76.660,-54.688,-13.672,-17.090
1790598188.702007,47.852,-48.340,-9.277,66.895
1790598188.705888,47.363,-52.734,11.719,43.945
1790598188.709768,-93.262,-59.082,-3.418,-28.809
1790598188.713649,-103.516,-53.223,-12.207,-28.320
1790598188.717530,6.836,-42.969,1.953,36.133
1790598188.721411,73.242,-44.434,8.301,79.102
1790598188.725688,-35.645,-45.410,-3.418,16.602
1790598188.729569,-122.559,-50.293,-15.625,-29.297
1790598188.733450,-33.203,-58.594,-16.113,-10.254
1790598188.737331,82.520,-53.711,-6.348,47.363
1790598188.741212,-0.977,-53.711,-9.277,17.090
1790598188.745093,-103.516,-46.387,-20.508,-37.598
1790598188.748974,-48.828,-31.250,-8.301,6.348
1790598188.752855,62.500,-37.598,4.395,62.500
1790598188.756736,51.270,-53.223,-7.324,-7.812
1790598188.760617,-59.082,-51.758,-13.672,-75.684
1790598188.764498,-68.848,-54.688,2.441,-53.223
