timestamp,TP9,AF7,AF8,TP10
1790599667.367295,0.000,0.000,-0.488,0.000
1790599667.371155,-0.488,0.000,-1.953,-0.488
1790599667.375014,0.977,-2.441,10.254,0.488
1790599667.378874,1.465,4.395,-37.109,1.465
1790599667.382733,-9.277,-25.391,132.812,-7.324
1790599667.386593,60.059,-67.871,103.516,40.527
1790599667.390452,86.914,-54.199,-163.574,48.340
1790599667.394312,-32.227,-47.363,-98.145,-29.297
1790599667.398171,-61.035,-49.805,-75.684,-29.297
1790599667.402031,48.828,-42.480,-60.059,37.109
1790599667.405891,99.121,-46.875,-44.434,60.059
1790599667.409750,-13.184,-54.688,-51.758,-13.672
1790599667.412736,-94.238,-60.059,-56.641,-61.035
1790599667.416523,16.602,-53.711,-50.293,10.742
1790599667.420310,158.691,-50.293,-43.945,94.238
1790599667.424097,48.828,-63.965,-43.945,41.504
1790599667.427883,-93.262,-67.383,-41.016,-30.762
1790599667.431670,-24.414,-53.223,-43.945,1.465
1790599667.435457,101.074,-60.547,-50.781,80.566
1790599667.439244,68.848,-55.176,-40.527,60.059
1790599667.443031,-40.527,-42.969,-29.785,-27.832
1790599667.446817,-41.016,-50.781,-32.227,-26.855
1790599667.450604,54.688,-44.434,-24.414,65.918
1790599667.454391,70.312,-43.457,-19.043,84.473
1790599667.455760,-27.832,-61.035,-33.203,-6.348
1790599667.459446,-50.293,-65.430,-39.551,-48.340
1790599667.463132,49.316,-53.223,-31.738,40.527
1790599667.466818,121.582,-56.641,-28.320,91.797
1790599667.470505,6.348,-67.383,-37.598,14.160
1790599667.474190,-68.848,-44.434,-48.340,-24.414
1790599667.477876,28.809,-48.340,-32.227,43.457
1790599667.481563,134.766,-55.176,-18.066,111.816
1790599667.485249,62.988,-62.988,-34.668,53.223
1790599667.488935,-58.594,-62.988,-44.434,-22.949
1790599667.492621,-18.555,-55.176,-32.227,21.973
1790599667.496307,104.980,-65.918,-26.367,104.492
1790599667.496231,60.059,-70.312,-25.879,57.129
1790599667.499812,-43.945,-57.129,-22.461,-29.297
1790599667.503394,7.812,-52.246,-23.438,10.254
1790599667.506975,95.215,-58.105,-30.273,73.242
1790599667.510557,92.773,-52.246,-23.438,81.055
1790599667.514139,-17.090,-49.805,-28.320,36.133
1790599667.517720,-57.129,-57.617,-43.945,-12.207
1790599667.521302,68.359,-57.129,-42.480,31.250
1790599667.524883,128.418,-56.152,-31.738,85.938
1790599667.528465,13.672,-66.406,-25.391,30.273
1790599667.532046,-68.848,-68.848,-37.598,-16.602
1790599667.535628,-5.859,-65.918,-37.109,25.391
1790599667.539366,110.352,-63.965,-19.531,108.887
1790599667.542950,66.895,-60.059,-32.715,69.824
1790599667.546535,-49.316,-59.570,-45.410,-26.855
1790599667.550120,-24.414,-62.988,-34.668,-1.465
1790599667.553705,109.863,-62.988,-27.832,80.078
1790599667.557289,92.773,-66.895,-34.180,62.988
1790599667.560874,-43.457,-83.496,-37.109,-21.484
1790599667.564459,-56.152,-85.938,-40.527,-34.668
1790599667.568044,58.594,-70.801,-40.039,56.152
1790599667.571629,107.910,-71.777,-25.879,80.566
1790599667.575213,-6.836,-71.777,-20.996,-1.953
1790599667.578798,-71.777,-59.082,-21.973,-27.832
1790599667.580552,34.668,-58.594,-25.879,32.227
1790599667.584107,122.559,-61.035,-28.809,85.449
1790599667.587661,9.277,-64.941,-26.855,19.531
1790599667.591215,-54.688,-72.754,-33.691,-35.156
1790599667.594769,22.949,-64.941,-36.621,17.578
1790599667.598324,115.234,-62.988,-27.344,96.680
1790599667.601878,54.688,-62.012,-20.508,59.082
1790599667.605433,-60.547,-56.641,-23.438,-37.598
1790599667.608987,-28.320,-69.824,-34.180,-17.090
1790599667.612541,87.402,-73.242,-31.738,63.965
1790599667.616095,103.516,-63.477,-26.855,69.336
1790599667.619650,-39.551,-61.523,-31.250,-11.230
1790599667.622028,-53.711,-80.566,-47.852,-22.461
1790599667.625566,77.637,-67.383,-38.086,65.918
1790599667.629104,100.586,-45.898,-20.996,80.566
1790599667.632642,-5.859,-55.176,-30.273,1.465
1790599667.636179,-53.711,-50.781,-39.551,-36.133
1790599667.639718,32.715,-47.363,-41.992,20.020
1790599667.643255,114.746,-47.363,-40.039,93.750
1790599667.646793,19.531,-54.688,-47.363,20.020
1790599667.650331,-81.055,-64.453,-61.035,-69.336
1790599667.653869,-30.762,-71.777,-57.129,-20.996
1790599667.657407,93.750,-60.059,-43.945,70.801
1790599667.660945,77.148,-51.270,-52.734,59.570
1790599667.663911,-22.949,-62.988,-49.316,3.418
1790599667.667442,-28.320,-63.965,-24.902,-4.395
1790599667.670974,77.148,-61.523,-21.973,72.754
1790599667.674505,78.125,-56.641,-28.320,80.566
1790599667.678036,-68.359,-75.684,-27.832,-20.020
1790599667.681567,-82.520,-84.961,-31.250,-45.410
1790599667.685098,40.527,-67.871,-25.391,36.133
1790599667.688629,101.074,-67.383,-16.602,94.727
1790599667.692160,-23.438,-72.266,-27.344,-10.742
1790599667.695692,-104.492,-66.895,-29.297,-66.406
1790599667.699223,-18.066,-71.777,-28.320,20.020
1790599667.702754,94.727,-68.359,-25.391,99.609
1790599667.706161,36.133,-71.777,-22.461,73.242
1790599667.709691,-80.566,-77.637,-26.855,4.883
1790599667.713221,-35.645,-78.125,-38.086,17.578
1790599667.716751,92.285,-82.031,-40.527,75.684
1790599667.720280,51.758,-71.777,-34.668,62.012
1790599667.723810,-50.781,-64.453,-35.645,-16.113
1790599667.727340,-43.945,-72.266,-35.645,-23.438
1790599667.730870,56.641,-69.824,-36.133,66.406
1790599667.734400,84.473,-65.918,-28.809,62.988
1790599667.737930,-40.527,-68.848,-24.414,-23.438
1790599667.741460,-58.105,-63.965,-36.621,-38.574
1790599667.744989,81.543,-53.711,-34.180,47.852
1790599667.748670,127.441,-56.641,-26.367,83.008
1790599667.752201,-4.883,-68.848,-26.367,-16.113
1790599667.755733,-74.707,-66.406,-30.762,-46.875
1790599667.759264,27.344,-59.082,-35.156,16.602
1790599667.762795,119.141,-62.012,-31.738,84.961
1790599667.766326,38.574,-66.895,-38.574,60.059
1790599667.769858,-76.172,-68.848,-44.434,-28.809
1790599667.773389,-32.227,-66.406,-40.039,-6.836
1790599667.776920,108.887,-55.176,-30.273,108.398
1790599667.780451,85.938,-53.223,-32.227,94.727
1790599667.783983,-66.406,-80.078,-47.363,-5.371
1790599667.787514,-65.918,-78.613,-49.805,-13.672
1790599667.791488,76.172,-54.688,-38.086,47.852
1790599667.795023,91.797,-72.266,-42.969,55.176
1790599667.798558,-30.762,-81.055,-44.434,-13.672
1790599667.802093,-79.590,-63.477,-36.133,-37.109
1790599667.805628,19.531,-56.152,-32.715,44.434
1790599667.809163,108.398,-54.199,-33.203,87.402
1790599667.812698,-2.441,-59.082,-44.922,11.230
1790599667.816233,-78.125,-58.105,-47.363,-61.035
1790599667.819768,2.441,-59.082,-34.180,-8.789
1790599667.823303,104.004,-58.105,-27.344,87.402
1790599667.826838,60.547,-56.641,-25.391,39.551
1790599667.830373,-47.852,-58.594,-26.855,-34.668
1790599667.834780,-16.113,-49.805,-29.297,-11.230
1790599667.838322,89.844,-58.594,-33.691,70.801
1790599667.841863,60.547,-73.242,-34.180,64.941
1790599667.845405,-73.730,-66.406,-35.645,-27.344
1790599667.848947,-76.172,-65.918,-32.715,-23.438
1790599667.852488,62.500,-67.383,-28.320,60.547
1790599667.856030,112.305,-68.848,-29.297,93.262
1790599667.859571,-7.812,-69.824,-26.367,9.277
1790599667.863113,-75.195,-63.965,-31.250,-40.039
1790599667.866654,23.926,-72.754,-40.039,32.715
1790599667.870196,121.094,-71.777,-38.086,97.656
1790599667.873737,28.320,-56.641,-33.691,30.273
1790599667.879885,-72.754,-52.246,-34.668,-34.180
1790599667.883445,-7.812,-62.500,-33.691,16.113
1790599667.887005,118.652,-68.359,-34.180,90.820
1790599667.890564,55.176,-57.129,-37.109,31.250
1790599667.894124,-76.172,-62.500,-46.387,-58.105
1790599667.897683,-43.457,-72.754,-55.664,-26.367
1790599667.901243,99.121,-62.500,-51.758,64.941
1790599667.904803,105.957,-61.035,-48.828,67.383
1790599667.908362,-56.641,-76.172,-53.711,-11.230
1790599667.911922,-76.660,-74.707,-49.805,-35.645
1790599667.915482,58.105,-66.406,-41.016,35.156
1790599667.919041,106.445,-59.082,-34.668,78.613
1790599667.925106,0.488,-67.871,-49.316,0.977
1790599667.928682,-63.477,-71.777,-67.383,-47.363
1790599667.932257,22.949,-67.383,-50.293,17.090
1790599667.935833,121.094,-66.406,-36.621,83.984
1790599667.939409,37.109,-65.918,-44.434,35.156
1790599667.942985,-57.617,-73.730,-50.293,-30.273
1790599667.946560,-10.254,-63.477,-42.969,12.695
1790599667.950136,81.543,-53.711,-31.738,93.262
1790599667.953712,40.039,-72.754,-43.945,59.570
1790599667.957287,-71.777,-91.797,-53.711,-34.180
1790599667.960863,-48.828,-73.730,-46.875,-31.250
1790599667.964439,78.125,-58.594,-47.852,63.477
1790599667.970300,82.520,-58.105,-47.852,79.590
1790599667.973889,-31.250,-60.547,-47.363,-11.719
1790599667.977478,-68.848,-75.684,-43.457,-36.621
1790599667.981068,33.203,-66.895,-45.898,44.434
1790599667.984657,124.512,-55.176,-47.363,88.379
1790599667.988246,17.090,-70.801,-47.852,25.879
1790599667.991836,-97.168,-74.219,-47.363,-26.367
1790599667.995425,0.488,-63.477,-47.852,22.461
1790599667.999014,112.305,-56.152,-47.363,102.539
1790599668.002604,51.270,-49.316,-39.062,59.570
1790599668.006193,-42.969,-51.758,-38.086,-19.043
1790599668.009782,-44.922,-65.918,-36.621,-1.465
1790599668.015563,73.730,-70.312,-34.668,71.289
1790599668.019165,54.199,-64.941,-39.551,45.898
1790599668.022766,-72.266,-69.824,-40.527,-34.668
1790599668.026368,-64.453,-75.195,-41.992,-26.855
1790599668.029969,48.828,-70.801,-40.527,60.547
1790599668.033571,78.125,-72.266,-42.969,65.430
1790599668.037172,-27.344,-71.289,-55.176,-31.250
1790599668.040774,-75.195,-75.684,-63.477,-55.664
1790599668.044375,10.742,-72.266,-57.129,23.438
1790599668.047977,89.355,-57.129,-39.551,83.008
1790599668.051578,-6.836,-76.172,-43.457,18.066
1790599668.055180,-83.984,-83.984,-53.711,-61.035
1790599668.060821,-7.324,-65.918,-44.922,0.977
1790599668.064433,111.816,-47.852,-30.273,101.562
1790599668.068045,53.711,-64.941,-36.621,44.922
1790599668.071657,-78.613,-82.031,-51.758,-35.645
1790599668.075269,-28.809,-67.871,-50.293,6.836
1790599668.078882,101.074,-67.383,-50.293,90.332
1790599668.082494,98.633,-57.617,-56.152,63.965
1790599668.086106,-51.270,-62.500,-64.453,-25.391
1790599668.089718,-86.914,-64.941,-54.199,-32.227
1790599668.093330,47.363,-59.570,-42.969,48.828
1790599668.096942,102.539,-57.129,-50.781,78.125
1790599668.100554,-22.461,-67.383,-55.664,-10.742
1790599668.106162,-82.520,-77.148,-54.688,-39.062
1790599668.109784,23.926,-59.082,-54.199,49.316
1790599668.113405,105.469,-48.828,-56.641,104.004
1790599668.117027,10.742,-54.199,-61.523,35.156
1790599668.120649,-80.566,-59.570,-61.035,-26.367
1790599668.124271,-3.906,-60.059,-57.617,16.113
1790599668.127893,123.047,-48.340,-55.176,105.469
1790599668.131515,94.727,-45.410,-50.781,60.547
1790599668.135137,-19.531,-54.199,-45.410,-35.645
1790599668.138759,-35.645,-64.453,-49.805,-13.672
1790599668.142381,107.910,-67.871,-56.152,106.445
1790599668.146003,108.887,-58.594,-47.363,103.516
1790599668.151427,-39.062,-63.965,-39.551,-17.578
1790599668.155057,-50.781,-78.613,-41.016,-28.809
1790599668.158687,61.035,-56.152,-41.016,49.316
1790599668.162317,106.445,-50.293,-39.062,93.262
1790599668.165947,-3.906,-49.805,-39.062,30.273
1790599668.169578,-70.801,-43.945,-53.223,-26.367
1790599668.173208,32.227,-50.781,-59.570,44.434
1790599668.176838,140.625,-46.875,-48.828,100.586
1790599668.180469,44.922,-37.598,-41.016,31.738
1790599668.184099,-35.645,-45.898,-47.363,-22.949
1790599668.187729,27.832,-51.758,-46.875,34.668
1790599668.191359,87.891,-51.758,-36.621,109.375
1790599668.196787,31.250,-44.922,-35.645,65.918
1790599668.200426,-70.312,-51.270,-46.387,-20.020
1790599668.204064,-29.785,-50.293,-48.828,-16.113
1790599668.207702,93.750,-51.270,-39.062,63.477
1790599668.211340,87.891,-62.988,-35.645,66.406
1790599668.214978,-42.969,-55.664,-35.645,10.742
1790599668.218616,-62.988,-56.641,-41.504,-2.930
1790599668.222254,67.871,-69.336,-29.297,47.363
1790599668.225893,141.602,-54.199,-20.996,98.633
1790599668.229531,1.953,-42.969,-29.785,35.156
1790599668.233169,-78.125,-46.387,-33.203,-24.902
1790599668.236807,28.809,-45.898,-32.227,18.555
1790599668.243485,127.441,-53.711,-32.227,81.543
1790599668.247136,26.367,-51.270,-35.156,9.766
1790599668.250787,-91.797,-54.199,-35.645,-55.176
1790599668.254437,-10.254,-56.152,-33.691,-0.488
1790599668.258088,102.539,-47.852,-34.668,68.359
1790599668.261739,49.805,-61.035,-40.039,45.898
1790599668.265390,-70.801,-61.523,-37.109,-20.020
1790599668.269041,-64.453,-53.223,-24.902,-16.113
1790599668.272691,83.984,-54.199,-20.020,65.430
1790599668.276342,125.977,-50.781,-22.949,104.004
1790599668.279993,-7.812,-53.223,-18.555,21.973
1790599668.283644,-81.055,-62.988,-11.230,-26.855
1790599668.290170,27.344,-71.289,-18.066,36.133
1790599668.293832,110.840,-55.176,-22.949,90.820
1790599668.297494,-22.949,-40.527,-19.043,5.859
1790599668.301156,-79.102,-63.477,-33.203,-48.828
1790599668.304818,-3.418,-69.824,-32.715,18.066
1790599668.308481,40.039,-53.711,-25.391,84.961
1790599668.312143,-11.230,-52.734,-24.902,12.695
1790599668.315805,-85.449,-51.270,-22.949,-57.617
1790599668.319467,-38.086,-51.270,-36.621,1.465
1790599668.323129,75.684,-50.293,-36.133,91.797
1790599668.326792,47.852,-47.852,-18.555,74.707
1790599668.330454,-55.664,-63.965,-20.508,-5.859
1790599668.336783,-45.410,-59.570,-25.391,-18.555
1790599668.340455,53.711,-52.734,-17.578,69.824
1790599668.344128,87.402,-56.641,-10.742,103.516
1790599668.347800,-10.742,-56.152,-17.090,0.000
1790599668.351472,-70.312,-55.664,-25.391,-31.738
1790599668.355145,20.508,-47.363,-26.855,53.223
1790599668.358817,104.004,-49.805,-23.926,106.445
1790599668.362489,11.719,-60.059,-22.461,41.992
1790599668.366161,-66.895,-59.570,-28.809,-0.977
1790599668.369834,-13.184,-46.387,-26.367,20.996
1790599668.373506,94.727,-41.504,-15.137,89.844
1790599668.377178,42.480,-60.547,-21.484,64.453
1790599668.383216,-58.594,-64.941,-35.156,-19.531
1790599668.386897,-19.531,-58.105,-26.855,-3.906
1790599668.390577,93.750,-53.711,-16.602,73.730
1790599668.394258,91.797,-58.105,-20.020,70.801
1790599668.397939,-28.320,-55.176,-21.973,-7.324
1790599668.401620,-21.973,-55.176,-20.020,-13.672
1790599668.405301,83.984,-52.734,-18.066,77.148
1790599668.408982,104.980,-68.848,-26.367,126.953
1790599668.412663,-17.578,-80.566,-30.762,39.551
1790599668.416343,-94.238,-52.734,-25.879,-31.250
1790599668.420024,17.578,-43.945,-28.320,43.945
1790599668.423705,119.141,-52.246,-33.691,106.934
1790599668.429666,12.207,-53.711,-32.227,37.109
1790599668.433355,-69.336,-62.500,-29.297,-12.207
1790599668.437044,11.230,-77.148,-37.109,15.625
1790599668.440733,96.680,-55.664,-34.180,83.496
1790599668.444422,51.758,-65.430,-24.414,45.898
1790599668.448110,-39.062,-83.008,-34.180,-28.320
1790599668.451799,-42.480,-63.965,-46.875,-8.789
1790599668.455488,34.668,-62.012,-55.664,64.453
1790599668.459177,48.340,-50.781,-41.992,70.312
1790599668.462865,-34.180,-54.199,-30.762,1.465
1790599668.466554,-54.688,-63.965,-39.062,-25.391
1790599668.470243,64.453,-46.387,-36.133,65.430
1790599668.475974,108.887,-45.898,-31.738,108.887
1790599668.479670,-21.973,-58.594,-40.527,-12.207
1790599668.483365,-79.590,-62.012,-50.293,-49.316
1790599668.487061,22.461,-54.199,-45.898,34.180
1790599668.490757,135.254,-46.387,-37.598,112.793
1790599668.494452,47.852,-69.824,-47.363,56.641
1790599668.498148,-84.961,-74.219,-53.223,-24.414
1790599668.501843,-41.016,-58.594,-49.316,-8.301
1790599668.505539,86.914,-57.129,-45.410,70.801
1790599668.509235,55.664,-68.848,-41.992,56.641
1790599668.512930,-50.293,-76.660,-45.410,-25.879
1790599668.516626,-47.363,-74.219,-46.875,-12.207
1790599668.522076,84.473,-66.406,-39.551,71.289
1790599668.525777,81.543,-64.941,-40.527,63.477
1790599668.529478,-63.965,-74.219,-49.805,-23.926
1790599668.533180,-76.660,-68.848,-55.176,-48.340
1790599668.536881,34.180,-54.688,-45.410,28.320
1790599668.540582,116.699,-61.035,-36.133,81.055
1790599668.544283,8.789,-72.266,-47.852,12.207
1790599668.547984,-80.566,-56.641,-45.410,-47.852
1790599668.551686,17.578,-46.875,-34.668,16.602
1790599668.555387,99.121,-55.176,-43.457,85.938
1790599668.559088,34.180,-59.082,-48.828,57.129
1790599668.562789,-66.895,-54.688,-38.574,-7.324
1790599668.568138,-32.227,-49.316,-33.203,10.742
1790599668.571845,118.652,-62.012,-39.551,92.285
1790599668.575551,81.055,-56.641,-39.551,53.223
1790599668.579257,-62.500,-50.293,-39.551,-39.062
1790599668.582963,-68.359,-68.359,-49.316,-22.461
1790599668.586670,46.387,-68.359,-54.199,73.242
1790599668.590376,104.004,-47.852,-47.852,70.312
1790599668.594082,-33.203,-63.477,-46.387,-23.926
1790599668.597789,-92.285,-75.684,-56.152,-46.875
1790599668.601495,56.641,-63.477,-57.617,47.852
1790599668.605201,111.328,-53.223,-44.434,100.098
1790599668.608908,-6.836,-53.223,-37.109,15.625
1790599668.615232,-74.707,-64.453,-47.852,-23.926
1790599668.618946,-1.953,-69.336,-58.105,24.414
1790599668.622660,91.309,-76.172,-56.641,72.754
1790599668.626374,11.230,-62.012,-48.828,26.855
1790599668.630088,-94.238,-62.500,-58.594,-43.945
1790599668.633802,-61.035,-74.219,-63.477,-14.648
1790599668.637516,72.754,-60.059,-55.176,65.918
1790599668.641230,59.082,-51.758,-54.199,67.871
1790599668.644944,-71.289,-64.453,-58.594,-5.859
1790599668.648659,-62.988,-58.594,-43.945,-24.414
1790599668.652373,61.523,-48.340,-33.203,49.316
1790599668.656087,104.980,-47.363,-32.715,80.566
1790599668.662170,-19.531,-59.082,-38.086,5.371
1790599668.665891,-117.188,-76.172,-57.129,-29.297
1790599668.669612,-10.742,-66.406,-53.711,21.484
1790599668.673333,110.840,-52.734,-32.715,62.988
1790599668.677054,-14.160,-53.711,-19.043,-6.836
1790599668.680775,-132.324,-57.617,-22.949,-82.031
1790599668.684496,-55.176,-62.988,-18.555,-49.316
1790599668.688217,36.133,-50.293,-14.160,23.926
1790599668.691938,-51.270,-25.879,-30.273,-44.922
1790599668.695659,-203.125,-22.461,-37.109,-154.785
1790599668.699379,-220.703,-20.508,-26.855,-162.598
1790599668.703100,-113.281,-15.137,-25.391,-109.863
1790599668.709008,-130.371,3.418,-23.438,-133.301
1790599668.712734,-276.855,12.207,-32.715,-259.766
1790599668.716461,-282.227,9.277,-44.434,-287.598
1790599668.720188,-166.992,3.418,-35.645,-212.402
1790599668.723915,-161.621,-7.812,-49.316,-191.895
1790599668.727642,-280.273,-1.953,-75.195,-267.578
1790599668.731369,-314.453,-3.906,-79.102,-302.734
1790599668.735096,-214.844,-17.090,-79.102,-213.867
1790599668.738823,-131.836,-2.441,-84.961,-144.531
1790599668.742550,-203.125,8.301,-82.520,-198.242
1790599668.746277,-268.555,-3.418,-85.938,-239.746
1790599668.750004,-194.824,-8.301,-100.586,-207.031
1790599668.755740,-55.664,-10.254,-104.980,-99.121
1790599668.759473,-71.777,-14.160,-100.586,-102.539
1790599668.763205,-194.336,-20.508,-102.539,-176.758
1790599668.766937,-180.176,-23.438,-113.281,-141.113
1790599668.770670,-22.461,-25.879,-116.211,-39.062
1790599668.774402,33.691,-35.645,-113.281,-5.371
1790599668.778134,-73.242,-41.992,-115.234,-77.637
1790599668.781867,-92.285,-45.410,-121.094,-75.684
1790599668.785599,31.738,-68.848,-111.328,24.414
1790599668.789332,101.074,-64.453,-95.215,65.918
1790599668.793064,4.883,-50.781,-109.863,12.695
1790599668.796796,-65.430,-65.430,-119.629,-25.879
1790599668.802340,29.785,-57.617,-113.770,35.645
1790599668.806077,161.133,-46.875,-104.492,124.023
1790599668.809814,94.238,-70.801,-109.863,79.102
1790599668.813551,-23.438,-95.215,-117.188,13.672
1790599668.817288,37.598,-87.402,-105.469,65.430
1790599668.821025,187.012,-67.383,-100.586,161.133
1790599668.824762,179.688,-63.477,-98.145,152.344
1790599668.828499,59.570,-74.219,-103.516,68.359
1790599668.832236,50.293,-74.707,-97.656,56.641
1790599668.835973,179.199,-74.707,-85.449,157.227
1790599668.839710,220.703,-77.637,-84.961,188.477
1790599668.843447,69.336,-78.125,-82.520,101.074
1790599668.848917,7.324,-84.961,-86.426,63.965
1790599668.852658,154.297,-83.496,-81.543,136.230
1790599668.856400,234.375,-81.055,-74.707,198.242
1790599668.860141,79.590,-75.195,-82.031,112.793
1790599668.863883,-15.625,-67.383,-88.379,39.551
1790599668.867624,89.844,-78.125,-91.797,82.520
1790599668.871366,216.309,-84.473,-86.426,157.227
1790599668.875107,139.648,-81.055,-72.266,125.000
1790599668.878849,48.340,-76.660,-62.988,53.223
1790599668.882590,97.656,-83.984,-62.012,91.797
1790599668.886332,172.363,-96.191,-68.359,193.359
1790599668.890073,150.879,-89.355,-69.336,164.062
1790599668.895361,0.000,-74.219,-68.848,66.895
1790599668.899107,0.000,-81.055,-67.383,78.613
1790599668.902852,0.000,-80.566,-60.547,158.691
1790599668.906597,0.000,-70.801,-52.246,166.016
1790599668.910342,0.000,-64.453,-49.805,78.125
1790599668.914088,0.000,-70.312,-62.012,54.688
1790599668.917833,0.000,-96.680,-65.430,137.207
1790599668.921578,0.000,-76.172,-49.805,165.527
1790599668.925323,0.000,-69.824,-40.039,105.957
1790599668.929069,0.000,-95.703,-49.805,52.246
1790599668.932814,0.000,-69.824,-51.270,64.453
1790599668.936559,0.000,-61.035,-41.504,138.184
1790599668.941715,83.496,-77.148,-47.852,93.750
1790599668.945464,-23.438,-87.891,-56.641,4.883
1790599668.949213,20.020,-85.449,-58.594,25.879
1790599668.952961,133.789,-95.703,-52.734,123.535
1790599668.956710,118.164,-82.031,-45.410,136.719
1790599668.960459,-0.488,-76.172,-54.199,55.176
1790599668.964207,-2.930,-77.148,-48.340,31.250
1790599668.967956,116.699,-60.059,-30.762,100.098
1790599668.971704,152.344,-61.523,-32.715,135.254
1790599668.975453,16.113,-81.543,-41.016,62.012
1790599668.979202,-36.133,-93.262,-44.434,24.414
1790599668.982950,86.426,-74.219,-43.945,85.449
1790599668.988861,160.645,-54.199,-52.246,131.836
1790599668.992615,42.969,-55.176,-52.246,35.645
1790599668.996368,-56.641,-65.918,-47.852,-47.363
1790599669.000122,-7.812,-63.477,-41.504,3.418
1790599669.003875,107.422,-64.453,-41.504,88.867
1790599669.007629,77.637,-67.871,-51.758,55.176
1790599669.011383,-44.434,-69.824,-59.570,-19.531
1790599669.015136,-26.855,-66.895,-62.012,-1.465
1790599669.018890,98.145,-68.848,-59.570,88.379
1790599669.022643,101.562,-72.754,-56.641,117.676
1790599669.026397,-18.066,-56.641,-62.500,11.230
1790599669.030151,-36.133,-57.129,-67.383,-27.832
1790599669.035916,79.590,-72.266,-65.918,70.312
1790599669.039674,116.211,-74.219,-66.895,106.445
1790599669.043432,-7.324,-63.477,-62.500,6.836
1790599669.047190,-75.684,-63.965,-61.035,-45.410
1790599669.050948,21.973,-62.500,-55.176,30.273
1790599669.054706,130.371,-65.430,-53.711,118.164
1790599669.058465,55.664,-74.219,-51.758,52.246
1790599669.062223,-56.152,-67.383,-54.199,-26.367
1790599669.065981,-4.395,-62.500,-62.012,37.109
1790599669.069739,125.000,-52.734,-52.246,99.609
1790599669.073497,75.684,-53.223,-47.852,63.477
1790599669.077255,-55.664,-66.406,-60.059,8.301
1790599669.082882,-41.992,-69.336,-58.105,30.762
1790599669.086644,74.219,-69.336,-52.246,106.445
1790599669.090407,115.234,-55.176,-51.270,82.031
1790599669.094169,9.766,-50.781,-55.176,-0.488
1790599669.097931,-33.691,-61.035,-54.688,-10.254
1790599669.101693,56.641,-54.199,-50.293,51.270
1790599669.105456,94.238,-46.875,-50.293,94.727
1790599669.109218,-28.320,-68.359,-60.059,22.949
1790599669.112980,-87.891,-78.125,-65.918,-31.738
1790599669.116743,2.930,-54.688,-49.805,11.230
1790599669.120505,116.699,-52.246,-40.527,93.262
1790599669.124267,41.992,-52.734,-37.598,53.223
1790599669.129750,-82.031,-54.199,-37.598,-36.133
1790599669.133516,-39.551,-57.617,-34.668,-1.465
1790599669.137281,99.121,-49.805,-25.879,97.656
1790599669.141047,101.562,-47.363,-29.785,75.195
1790599669.144813,-42.480,-48.340,-36.621,-15.137
1790599669.148579,-49.316,-62.500,-44.434,-9.277
1790599669.152345,88.867,-68.359,-41.504,69.336
1790599669.156111,111.328,-62.500,-39.062,94.727
1790599669.159877,-44.922,-72.266,-44.434,21.973
1790599669.163643,-109.863,-65.918,-41.504,-20.996
1790599669.167409,25.391,-47.852,-42.480,43.457
1790599669.171175,109.863,-45.898,-41.504,99.609
1790599669.176613,15.137,-57.129,-38.574,26.367
1790599669.180382,-57.617,-76.172,-39.551,-44.434
1790599669.184152,7.324,-73.242,-38.086,12.207
1790599669.187921,100.586,-44.434,-29.785,83.984
1790599669.191691,52.246,-43.457,-23.438,41.504
1790599669.195460,-63.965,-51.758,-28.809,-25.879
1790599669.199229,-42.480,-54.199,-39.551,0.977
1790599669.202999,92.773,-66.406,-54.199,87.891
1790599669.206768,90.820,-64.941,-44.434,55.176
1790599669.210538,-48.340,-60.547,-35.156,-44.434
1790599669.214307,-97.656,-69.336,-51.270,-35.156
1790599669.218076,33.203,-62.500,-47.363,56.641
1790599669.223364,120.117,-59.082,-35.645,0.000
1790599669.227136,-14.160,-66.895,-39.551,0.000
1790599669.230909,-112.305,-65.430,-52.734,0.000
1790599669.234681,-15.137,-63.477,-57.617,0.000
1790599669.238454,72.266,-59.082,-62.500,0.000
1790599669.242226,-2.441,-62.012,-64.453,0.000
1790599669.245999,-75.684,-73.730,-64.453,0.000
1790599669.249771,-28.809,-75.684,-60.059,0.000
1790599669.253544,76.660,-60.059,-45.898,0.000
1790599669.257316,26.367,-62.500,-45.898,0.000
1790599669.261089,-94.238,-71.777,-62.988,0.000
1790599669.264861,-60.059,-61.523,-68.359,0.000
1790599669.269915,89.355,-50.781,-56.152,56.641
1790599669.273690,95.703,-62.988,-65.430,55.176
1790599669.277465,-42.480,-65.918,-67.871,-12.695
1790599669.281240,-83.008,-50.293,-55.664,-19.531
1790599669.285015,29.297,-45.898,-59.082,40.527
1790599669.288790,114.746,-46.875,-60.547,80.566
1790599669.292565,12.695,-69.336,-72.266,9.277
1790599669.296340,-88.867,-66.406,-76.660,-42.969
1790599669.300116,-10.254,-48.828,-64.453,16.113
1790599669.303890,100.098,-55.176,-66.895,84.473
1790599669.307666,16.113,-54.199,-71.289,17.090
1790599669.311441,-99.609,-77.148,-68.848,-52.246
1790599669.317257,-14.648,-79.590,-64.941,-0.488
1790599669.321036,112.305,-56.641,-62.500,82.031
1790599669.324815,57.129,-58.594,-64.453,62.988
1790599669.328594,-52.246,-69.824,-68.359,-29.297
1790599669.332373,-50.781,-58.105,-77.148,-27.832
1790599669.336152,55.176,-58.105,-80.078,61.523
1790599669.339931,69.336,-58.594,-76.172,65.430
1790599669.343710,-53.711,-52.246,-67.871,-30.273
1790599669.347489,-100.098,-62.500,-70.801,-46.875
1790599669.351268,15.625,-65.430,-72.266,44.922
1790599669.355047,105.469,-55.664,-62.012,90.820
1790599669.358826,-8.789,-59.570,-63.477,0.488
1790599669.364428,-80.566,-73.730,-75.195,-38.086
1790599669.368210,19.043,-76.660,-76.172,9.766
1790599669.371993,111.816,-61.035,-65.918,69.824
1790599669.375775,27.344,-47.363,-60.547,22.949
1790599669.379557,-71.289,-61.523,-62.012,-44.434
1790599669.383340,-15.137,-81.055,-67.871,7.324
1790599669.387122,115.723,-62.500,-63.965,82.520
1790599669.390905,91.797,-48.340,-53.223,56.152
1790599669.394687,-42.969,-53.223,-60.059,-11.719
1790599669.398470,-52.246,-54.199,-63.477,-6.836
1790599669.402252,86.426,-54.688,-47.363,59.082
1790599669.406034,107.910,-51.758,-44.434,68.359
1790599669.411495,-47.852,-70.312,-55.664,-0.977
1790599669.415280,-76.172,-73.242,-60.547,-18.066
1790599669.419066,32.227,-50.293,-52.246,35.645
1790599669.422851,84.961,-64.941,-43.945,60.547
1790599669.426637,-7.812,-85.938,-52.246,-13.672
1790599669.430423,-93.262,-65.918,-72.266,-53.223
1790599669.434208,-24.414,-55.664,-70.312,12.207
1790599669.437994,108.398,-67.871,-49.805,82.031
1790599669.441779,45.410,-58.105,-54.688,42.969
1790599669.445565,-102.539,-50.781,-65.430,-35.156
1790599669.449350,-63.965,-49.805,-55.664,-12.695
1790599669.453136,93.750,-44.434,-42.480,82.031
1790599669.458531,92.773,-50.293,-41.016,68.359
1790599669.462319,-65.918,-59.082,-53.223,-23.926
1790599669.466108,-87.891,-63.965,-58.105,-35.156
1790599669.469896,49.805,-68.848,-55.664,43.457
1790599669.473685,84.473,-71.289,-58.105,87.402
1790599669.477473,-45.898,-67.871,-65.430,1.465
1790599669.481262,-96.191,-64.941,-65.430,-53.711
1790599669.485050,22.461,-63.477,-61.523,27.832
1790599669.488839,85.938,-67.383,-63.965,71.777
1790599669.492627,-9.766,-62.012,-59.082,5.859
1790599669.496416,-45.898,-50.781,-53.223,-11.230
1790599669.500204,9.766,-57.129,-45.410,36.133
1790599669.505429,85.938,-63.965,-35.156,84.961
1790599669.509220,30.273,-68.359,-32.715,39.062
1790599669.513011,-97.168,-73.242,-39.062,-37.109
1790599669.516802,-60.059,-61.523,-38.086,-19.043
1790599669.520593,56.641,-58.105,-34.180,65.918
1790599669.524384,43.945,-65.430,-35.645,77.148
1790599669.528175,-66.406,-75.195,-37.109,-23.926
1790599669.531966,-79.590,-82.520,-43.457,-36.621
1790599669.535757,25.391,-82.520,-41.016,35.156
1790599669.539548,85.938,-64.453,-27.344,61.523
1790599669.543339,-21.484,-57.617,-30.762,-1.465
1790599669.547130,-97.168,-61.035,-39.062,-39.062
1790599669.552285,13.672,-58.105,-34.180,32.715
1790599669.556078,117.188,-61.035,-29.785,96.680
1790599669.559872,33.203,-57.617,-39.551,35.645
1790599669.563665,-52.246,-58.105,-47.363,-16.113
1790599669.567459,0.000,-62.988,-44.922,15.625
1790599669.571252,83.496,-67.871,-44.922,85.938
1790599669.575045,31.738,-75.684,-44.434,64.941
1790599669.578839,-80.078,-87.891,-48.340,-2.930
1790599669.582632,-61.523,-79.590,-45.898,-7.324
1790599669.586426,95.703,-56.641,-35.645,45.898
1790599669.590219,116.211,-43.945,-41.016,52.246
1790599669.594012,-40.527,-62.988,-48.340,-27.832
1790599669.599005,-74.219,-83.496,-45.410,-45.898
1790599669.602801,45.410,-75.684,-39.551,41.504
1790599669.606596,86.426,-59.082,-43.457,105.469
1790599669.610392,-42.480,-60.547,-53.223,11.719
1790599669.614187,-99.609,-62.500,-60.547,-43.457
1790599669.617982,32.227,-62.988,-57.129,31.738
1790599669.621778,140.625,-58.105,-55.664,104.492
1790599669.625573,14.648,-57.129,-53.223,42.969
1790599669.629369,-119.141,-67.871,-42.480,-40.527
1790599669.633164,-53.223,-63.965,-42.969,-10.254
1790599669.636960,75.684,-71.289,-49.805,77.637
1790599669.640755,38.574,-62.012,-41.016,62.012
1790599669.645692,-87.402,-58.594,-38.086,-42.480
1790599669.649489,-40.527,-77.148,-47.363,-35.156
1790599669.653286,84.961,-62.012,-45.410,66.895
1790599669.657084,60.059,-56.152,-43.457,78.613
1790599669.660881,-71.289,-65.430,-52.734,-9.277
1790599669.664678,-103.516,-88.379,-62.988,-23.926
1790599669.668476,11.230,-95.215,-70.312,38.574
1790599669.672273,99.121,-62.500,-62.500,80.078
1790599669.676070,0.000,-42.480,-46.875,-6.348
1790599669.679868,-81.055,-53.711,-51.270,-52.734
1790599669.683665,-6.348,-62.988,-58.105,15.137
1790599669.687462,90.820,-38.086,-43.457,78.125
1790599669.692346,31.738,-38.086,-32.227,28.320
1790599669.696145,-77.148,-67.871,-46.387,-47.852
1790599669.699944,-55.664,-56.641,-48.340,-16.602
1790599669.703743,77.148,-45.410,-39.551,72.266
1790599669.707542,84.961,-44.434,-39.062,66.895
1790599669.711341,-53.223,-56.152,-53.223,-27.832
1790599669.715140,-82.520,-67.871,-60.547,-33.691
1790599669.718939,42.969,-54.199,-50.293,69.336
1790599669.722739,117.676,-39.551,-42.969,119.141
1790599669.726537,27.344,-58.594,-56.152,38.574
1790599669.730337,-51.270,-69.336,-53.223,-23.926
1790599669.734136,-0.488,-63.477,-31.250,20.508
1790599669.739564,73.730,-68.848,-35.156,78.613
1790599669.743366,-3.418,-66.406,-41.504,23.438
1790599669.747168,-80.078,-60.059,-34.668,-31.738
1790599669.750970,-13.672,-76.172,-28.320,8.301
1790599669.754771,72.266,-88.379,-30.273,62.988
1790599669.758573,0.000,-79.102,-35.156,11.230
1790599669.762375,-126.953,-72.754,-41.016,-81.543
1790599669.766176,-87.402,-65.918,-43.945,-53.711
1790599669.769978,59.082,-69.824,-42.480,48.828
1790599669.773780,57.617,-66.895,-44.434,49.805
1790599669.777581,-82.031,-62.988,-41.016,-43.945
1790599669.781383,-86.914,-70.312,-35.645,-45.898
1790599669.786622,69.336,-67.871,-27.344,75.684
1790599669.790426,110.840,-67.383,-23.438,115.723
1790599669.794230,-39.551,-66.895,-28.320,17.578
1790599669.798034,-93.262,-71.289,-37.109,-36.133
1790599669.801838,8.789,-71.777,-34.668,39.062
1790599669.805642,86.914,-77.637,-32.227,102.051
1790599669.809446,6.836,-82.031,-28.809,32.715
1790599669.813250,-61.035,-68.359,-26.367,-24.414
1790599669.817054,5.371,-68.359,-33.691,32.715
1790599669.820858,98.145,-53.711,-27.832,112.305
1790599669.824661,37.109,-35.645,-14.160,58.594
1790599669.828465,-84.961,-54.199,-22.461,-36.133
1790599669.833600,-51.270,-59.082,-27.832,-31.738
1790599669.837406,92.773,-45.410,-20.508,49.316
1790599669.841212,95.215,-40.039,-20.996,63.477
1790599669.845018,-61.523,-52.734,-33.691,-14.160
1790599669.848825,-88.867,-79.102,-41.504,-13.672
1790599669.852630,58.594,-74.707,-36.133,48.828
1790599669.856436,113.770,-39.551,-28.320,58.594
1790599669.860243,-11.230,-46.875,-36.133,10.254
1790599669.864048,-85.449,-67.383,-42.480,-16.602
1790599669.867855,12.695,-52.246,-34.180,32.715
1790599669.871661,109.375,-46.387,-26.367,90.820
1790599669.875467,30.273,-55.664,-36.621,32.715
1790599669.880481,0.000,-69.824,-49.805,-25.391
1790599669.884289,0.000,-58.594,-49.805,21.973
1790599669.888097,0.000,-37.109,-45.410,90.820
1790599669.891904,0.000,-46.387,-47.852,71.777
1790599669.895712,0.000,-57.129,-50.293,0.488
1790599669.899520,0.000,-51.270,-47.852,-13.184
1790599669.903328,0.000,-49.316,-40.039,62.988
1790599669.907136,0.000,-62.012,-40.039,110.352
1790599669.910944,0.000,-71.777,-49.316,17.578
1790599669.914752,0.000,-58.105,-40.039,-26.855
1790599669.918559,0.000,-61.523,-33.203,54.199
1790599669.922367,0.000,-76.172,-40.527,86.914
1790599669.927295,1.465,-64.453,-41.016,12.695
1790599669.931105,-71.289,-47.363,-40.527,-26.367
1790599669.934914,24.902,-45.410,-36.621,36.621
1790599669.938724,120.605,-53.711,-32.715,104.492
1790599669.942533,47.363,-56.641,-30.273,47.852
1790599669.946343,-69.824,-60.059,-36.621,-23.438
1790599669.950152,-36.133,-63.477,-44.922,-2.930
1790599669.953962,94.238,-62.988,-40.527,72.754
1790599669.957771,69.824,-48.340,-26.367,56.641
1790599669.961581,-34.668,-37.109,-21.973,2.930
1790599669.965390,-28.320,-45.898,-27.832,20.020
1790599669.969200,68.359,-53.223,-21.484,86.426
1790599669.974000,114.258,-58.105,-25.879,101.074
1790599669.977811,14.160,-59.082,-41.992,-0.488
1790599669.981622,-80.078,-67.871,-57.617,-54.688
1790599669.985433,9.277,-67.871,-51.758,17.090
1790599669.989244,104.492,-55.664,-41.504,82.520
1790599669.993055,18.066,-62.988,-54.688,13.184
1790599669.996866,-80.078,-65.918,-63.965,-36.133
1790599670.000676,6.836,-48.340,-54.199,23.926
1790599670.004488,153.809,-39.551,-52.246,84.961
1790599670.008298,64.941,-66.895,-56.152,45.898
1790599670.012109,-78.125,-82.031,-57.129,-34.668
1790599670.015920,-42.480,-43.457,-58.594,-18.066
1790599670.020699,83.984,-34.180,-46.387,78.125
1790599670.024511,75.195,-47.852,-42.480,55.176
1790599670.028324,-40.527,-55.664,-52.246,-25.879
1790599670.032136,-38.574,-58.105,-48.828,-26.367
1790599670.035949,80.566,-47.363,-41.992,47.852
1790599670.039761,139.160,-43.945,-35.156,106.445
1790599670.043573,30.273,-47.852,-33.203,37.598
1790599670.047386,-56.152,-46.875,-36.133,-20.996
1790599670.051198,37.598,-39.551,-27.832,37.109
1790599670.055010,141.113,-41.992,-23.438,102.051
1790599670.058823,46.387,-50.781,-37.109,41.016
1790599670.062635,-62.988,-51.758,-42.969,-30.762
1790599670.067334,11.230,-39.062,-35.156,35.156
1790599670.071147,149.414,-53.711,-36.133,122.559
1790599670.074961,92.285,-81.543,-41.504,56.152
1790599670.078775,-40.039,-50.781,-43.457,-38.086
1790599670.082588,-19.531,-31.250,-45.410,-11.719
1790599670.086402,106.934,-56.641,-47.363,90.332
1790599670.090215,97.168,-67.383,-36.133,69.824
1790599670.094029,-62.012,-64.453,-24.414,-34.180
1790599670.097843,-90.332,-62.500,-30.273,-33.691
1790599670.101656,36.133,-58.105,-37.598,35.645
1790599670.105470,92.773,-60.059,-41.504,59.570
1790599670.109283,-6.836,-73.242,-45.898,-16.602
1790599670.114519,-72.754,-72.754,-51.270,-54.688
1790599670.118335,8.301,-64.941,-48.828,20.020
1790599670.122150,121.582,-63.965,-45.898,90.332
1790599670.125966,36.133,-61.035,-43.945,17.578
1790599670.129781,-73.242,-62.500,-47.852,-48.340
1790599670.133597,-8.789,-61.523,-54.199,8.301
1790599670.137413,109.863,-55.176,-53.711,89.355
1790599670.141228,66.895,-61.523,-53.223,62.012
1790599670.145044,-44.434,-67.871,-56.641,-31.738
1790599670.148859,-23.438,-58.594,-64.941,-22.949
1790599670.152675,99.609,-37.109,-48.340,69.824
1790599670.156491,129.395,-27.832,-31.738,93.750
1790599670.161665,-19.531,-39.551,0.000,13.672
1790599670.165483,-72.754,-51.270,0.000,-19.531
1790599670.169300,63.477,-46.387,0.000,56.152
1790599670.173117,140.137,-44.434,0.000,104.492
1790599670.176935,28.809,-53.223,0.000,22.461
1790599670.180752,-49.805,-62.500,0.000,-37.109
1790599670.184570,43.945,-55.664,0.000,19.531
1790599670.188387,137.207,-45.410,0.000,104.004
1790599670.192205,57.129,-63.477,0.000,50.781
1790599670.196022,-64.453,-59.570,0.000,-33.691
1790599670.199840,-30.762,-41.016,0.000,-2.441
1790599670.203657,114.258,-53.223,0.000,80.566
1790599670.208722,82.031,-62.012,-39.551,61.523
1790599670.212541,-61.035,-54.199,-43.945,-28.809
1790599670.216360,-39.551,-53.711,-44.434,-8.789
1790599670.220179,111.328,-63.477,-41.504,80.078
1790599670.223998,118.652,-68.359,-45.410,68.359
1790599670.227817,-11.719,-52.734,-51.270,-41.992
1790599670.231637,-65.430,-43.457,-53.223,-62.988
1790599670.235456,58.594,-43.945,-42.969,41.992
1790599670.239275,159.180,-47.363,-44.922,98.145
1790599670.243094,27.344,-45.898,-42.480,30.273
1790599670.246913,-82.520,-46.875,-43.457,-28.809
1790599670.250732,8.301,-50.781,-50.781,7.812
1790599670.255621,138.184,-48.340,-46.387,95.703
1790599670.259442,82.031,-49.316,-44.922,95.215
1790599670.263262,-70.312,-61.523,-41.992,11.719
1790599670.267083,-69.824,-63.477,-43.457,-9.277
1790599670.270903,72.754,-53.711,-43.945,68.848
1790599670.274724,73.730,-57.617,-43.945,62.012
1790599670.278544,-63.477,-61.523,-43.457,-24.414
1790599670.282365,-82.031,-62.012,-45.898,-14.648
1790599670.286186,70.312,-55.176,-40.527,63.965
1790599670.290006,118.652,-45.410,-31.250,72.754
1790599670.293827,-44.434,-54.199,-40.039,0.000
1790599670.297647,-93.262,-65.918,-47.363,-40.039
1790599670.302594,45.410,-64.941,-43.945,35.645
1790599670.306416,129.395,-63.477,-42.480,90.332
1790599670.310238,54.199,-70.801,-43.457,14.160
1790599670.314060,-32.227,-54.199,-41.992,-27.344
1790599670.317882,-3.906,-41.016,-41.016,18.555
1790599670.321704,101.074,-51.758,-41.016,84.961
1790599670.325526,10.742,-51.758,-42.480,34.180
1790599670.329348,-125.977,-65.430,-46.875,-43.945
1790599670.333170,-53.711,-55.176,-39.551,-14.160
1790599670.336992,86.426,-40.527,-32.227,70.312
1790599670.340814,70.801,-50.293,-42.480,61.523
1790599670.344636,-79.590,-57.129,-43.457,-17.578
1790599670.349482,-94.727,-51.270,-38.086,-23.926
1790599670.353306,65.918,-45.898,-40.527,43.457
1790599670.357129,128.906,-63.965,-43.457,89.844
1790599670.360952,-13.184,-77.637,-44.922,15.137
1790599670.364776,-83.496,-60.059,-43.945,-46.387
1790599670.368599,34.668,-46.875,-36.133,30.273
1790599670.372422,135.254,-62.500,-40.527,104.492
1790599670.376245,16.602,-56.152,-43.457,44.922
1790599670.380069,-97.168,-49.805,-42.969,-32.715
1790599670.383892,-29.297,-67.871,-41.992,-14.648
1790599670.387716,92.285,-56.641,-38.086,72.266
1790599670.391539,41.504,-53.223,-39.062,41.992
1790599670.396259,-88.379,-59.570,-43.457,-54.199
1790599670.400084,-56.641,-56.641,-43.945,-35.645
1790599670.403908,104.004,-54.199,-36.621,65.430
1790599670.407732,92.285,-54.688,-36.621,61.035
1790599670.411557,-72.266,-59.570,-34.180,-29.297
1790599670.415381,-105.469,-72.754,-38.574,-12.207
1790599670.419206,45.898,-66.895,-44.434,65.918
1790599670.423030,112.305,-51.270,-35.156,78.613
1790599670.426855,-47.363,-54.199,-35.156,12.695
1790599670.430679,-127.930,-56.641,-41.504,-35.156
1790599670.434504,-5.859,-53.711,-33.691,31.250
1790599670.438328,119.629,-57.129,-29.297,97.656
1790599670.442995,30.762,-51.270,-29.785,15.137
1790599670.446820,-94.727,-65.430,-43.457,-53.223
1790599670.450646,-38.574,-67.383,-54.688,-3.906
1790599670.454471,122.559,-44.922,-38.574,82.520
1790599670.458297,80.566,-46.875,-32.715,63.965
1790599670.462122,-92.773,-65.430,-47.363,-3.906
1790599670.465948,-72.754,-71.289,-47.852,8.301
1790599670.469773,84.473,-54.688,-27.832,73.730
1790599670.473599,82.520,-50.781,-22.949,85.449
1790599670.477424,-70.801,-60.547,-36.133,-9.766
1790599670.481250,-100.098,-59.570,-39.062,-34.180
1790599670.485075,25.879,-58.105,-26.855,56.641
1790599670.490156,99.121,-59.082,-35.156,83.984
1790599670.493984,-16.602,-57.617,-42.969,3.906
1790599670.497810,-107.422,-73.730,-39.062,-52.734
1790599670.501637,-18.555,-69.336,-38.574,-3.418
1790599670.505465,99.609,-62.012,-37.109,82.031
1790599670.509292,19.043,-78.613,-43.945,41.504
1790599670.513119,-106.445,-81.055,-51.758,-38.086
1790599670.516946,-41.992,-67.383,-45.898,4.395
1790599670.520773,107.422,-72.754,-38.574,95.215
1790599670.524600,61.523,-77.148,-40.039,65.430
1790599670.528427,-85.449,-69.336,-41.504,-22.949
1790599670.532254,-69.824,-64.453,-40.527,-25.391
1790599670.537246,83.984,-75.195,-46.875,48.340
1790599670.541075,100.098,-83.008,-50.781,61.035
1790599670.544903,-68.359,-65.918,-41.016,-36.133
1790599670.548731,-118.652,-66.406,-41.992,-47.363
1790599670.552560,26.367,-73.242,-43.457,40.039
1790599670.556388,138.672,-73.730,-40.039,91.797
1790599670.560217,17.090,-54.199,-39.551,13.672
1790599670.564045,-104.980,-55.176,-31.250,-31.250
1790599670.567874,7.324,-70.801,-36.133,45.410
1790599670.571702,122.070,-42.969,-40.527,118.164
1790599670.575531,27.832,-35.645,-25.391,53.223
1790599670.579359,-79.102,-49.316,-25.391,-19.531
1790599670.584303,0.000,-52.246,-30.273,10.742
1790599670.588133,0.000,-56.152,-30.273,79.590
1790599670.591963,0.000,-60.547,-34.668,96.680
1790599670.595792,0.000,-64.453,-40.527,18.066
1790599670.599622,0.000,-62.988,-39.551,-6.348
1790599670.603452,0.000,-65.430,-32.715,78.125
1790599670.607282,0.000,-69.824,-30.273,100.586
1790599670.611111,0.000,-61.035,-43.457,-0.488
1790599670.614941,0.000,-53.711,-55.176,-39.551
1790599670.618771,0.000,-44.922,-39.551,25.879
1790599670.622601,0.000,-42.480,-26.367,88.379
1790599670.626431,0.000,-53.711,-17.578,36.621
1790599670.631268,-101.074,-53.223,-22.461,-41.504
1790599670.635099,-41.016,-42.480,-24.902,-3.418
1790599670.638930,80.078,-38.086,-10.742,83.008
1790599670.642761,18.555,-43.457,-17.090,49.805
1790599670.646592,-102.539,-49.805,-32.715,-29.297
1790599670.650423,-85.449,-51.758,-38.086,-38.574
1790599670.654254,25.391,-44.922,-24.414,6.348
1790599670.658085,26.367,-39.062,-18.066,21.484
1790599670.661916,-125.488,-32.715,-25.879,-57.129
1790599670.665747,-169.922,-14.648,-14.648,-119.141
1790599670.669578,-67.383,-10.254,12.695,-66.406
1790599670.673409,-25.879,-8.789,28.809,-30.273
1790599670.678174,-165.039,-0.488,34.668,-111.816
1790599670.682007,-264.160,-13.184,28.320,-192.383
1790599670.685839,-199.219,-41.992,27.832,-157.227
1790599670.689671,-119.629,-27.344,47.363,-102.051
1790599670.693503,-213.867,-22.461,54.688,-159.668
1790599670.697335,-355.957,-41.992,55.176,-236.816
1790599670.701167,-316.406,-47.363,66.895,-199.219
1790599670.704999,-179.199,-69.824,64.453,-118.652
1790599670.708831,-213.379,-83.008,50.781,-181.641
1790599670.712663,-325.684,-60.547,49.805,-265.625
1790599670.716495,-331.543,-58.105,42.480,-236.328
1790599670.720327,-191.895,-64.453,36.133,-144.531
1790599670.725612,-145.996,-56.641,43.945,-145.020
1790599670.729446,-296.875,-59.570,36.621,-200.195
1790599670.733279,-313.965,-56.641,20.020,-202.637
1790599670.737113,-178.223,-44.922,10.254,-158.691
1790599670.740947,-82.031,-48.340,3.418,-88.867
1790599670.744781,-181.641,-62.988,-11.230,-133.301
1790599670.748614,-264.160,-52.246,-22.949,-190.430
1790599670.752448,-153.809,-45.410,-29.297,-99.121
1790599670.756282,-20.508,-41.992,-31.250,-30.762
1790599670.760115,-65.430,-60.547,-35.645,-90.820
1790599670.763949,-173.340,-86.914,-53.711,-121.094
1790599670.767783,-122.559,-77.148,-66.895,-81.055
1790599670.772349,19.043,-54.199,-62.988,14.648
1790599670.776183,15.137,-53.223,-70.312,23.438
1790599670.780018,-67.383,-62.988,-74.219,-36.621
1790599670.783852,-62.500,-58.594,-77.637,-20.508
1790599670.787687,62.012,-56.152,-76.660,69.824
1790599670.791521,96.191,-50.781,-74.219,98.145
1790599670.795356,-17.578,-60.547,-88.379,20.508
1790599670.799190,-30.762,-59.570,-97.168,3.418
1790599670.803025,83.008,-50.781,-86.914,88.379
1790599670.806859,169.434,-69.824,-83.496,149.902
1790599670.810694,60.059,-73.730,-95.215,85.938
1790599670.814528,-39.551,-56.641,-94.238,3.906
1790599670.819564,61.523,-62.988,-93.262,53.711
1790599670.823400,199.219,-61.035,-96.191,165.039
1790599670.827235,142.578,-46.875,-100.098,136.230
1790599670.831071,1.953,-53.223,-103.516,46.875
1790599670.834907,34.180,-62.988,-105.957,81.543
1790599670.838743,196.777,-82.031,-105.957,183.105
1790599670.842579,187.012,-90.820,-104.492,153.809
1790599670.846415,28.809,-64.941,-102.539,44.434
1790599670.850250,20.996,-68.848,-98.633,48.340
1790599670.854086,148.926,-74.219,-96.191,145.996
1790599670.857922,188.477,-64.453,-90.332,183.105
1790599670.861758,64.941,-67.383,-85.449,93.750
1790599670.866657,2.441,-86.426,-92.773,55.176
1790599670.870494,125.977,-72.754,-97.168,132.324
1790599670.874331,214.844,-58.105,-92.285,178.711
1790599670.878168,132.324,-70.312,-88.379,133.301
1790599670.882005,6.348,-74.219,-95.215,88.379
1790599670.885842,43.457,-69.336,-98.633,121.582
1790599670.889679,172.363,-75.195,-94.727,166.992
1790599670.893516,112.793,-82.031,-91.309,117.676
1790599670.897353,2.930,-79.590,-90.820,42.969
1790599670.901191,48.828,-76.660,-82.520,61.523
1790599670.905027,189.941,-60.059,-71.777,156.738
1790599670.908864,173.828,-70.312,-81.543,145.508
1790599670.913680,26.855,-83.984,-94.727,76.660
1790599670.917518,-0.488,-87.402,-87.402,72.266
1790599670.921356,124.023,-83.984,-69.824,131.348
1790599670.925195,180.176,-67.871,-64.941,169.434
1790599670.929033,52.246,-64.941,-67.383,102.539
1790599670.932871,8.301,-65.918,-66.406,54.199
1790599670.936709,93.750,-66.406,-67.383,83.008
1790599670.940547,146.484,-62.012,-70.312,135.742
1790599670.944385,88.867,-64.941,-70.312,108.398
1790599670.948223,-25.879,-72.754,-67.383,39.551
1790599670.952061,10.742,-63.477,-57.617,65.918
1790599670.955899,143.066,-65.430,-58.594,146.973
1790599670.960651,99.121,-77.148,-69.336,108.398
1790599670.964491,-15.137,-73.242,-66.406,31.738
1790599670.968330,6.348,-71.777,-63.477,58.105
1790599670.972169,132.812,-71.289,-62.012,151.855
1790599670.976008,137.695,-68.848,-57.617,136.719
1790599670.979847,-4.883,-80.566,-59.570,29.785
1790599670.983686,-66.406,-72.266,-65.430,5.371
1790599670.987525,75.684,-59.082,-56.152,92.285
1790599670.991364,167.969,-61.523,-42.969,139.160
1790599670.995203,31.250,-54.199,-43.945,64.941
1790599670.999042,-66.406,-60.059,-51.270,11.719
1790599671.002881,27.344,-61.035,-49.805,35.645
1790599671.007593,136.719,-55.176,-50.781,109.375
1790599671.011433,44.922,-62.988,-54.199,58.594
1790599671.015273,-85.938,-69.824,-61.035,-15.137
1790599671.019113,-21.484,-71.289,-70.312,46.387
1790599671.022953,130.859,-64.941,-62.988,124.023
1790599671.026793,85.938,-68.359,-45.410,73.730
1790599671.030633,-55.664,-75.684,-41.504,-22.461
1790599671.034473,-59.570,-82.520,-52.246,-3.418
1790599671.038313,62.012,-75.195,-44.434,77.637
1790599671.042153,89.844,-57.617,-32.227,75.684
1790599671.045993,-40.527,-62.988,-39.551,4.883
1790599671.049833,-86.914,-75.195,-52.246,-25.879
1790599671.054427,25.391,-70.801,-52.734,46.387
1790599671.058268,103.516,-63.965,-44.434,86.914
1790599671.062109,17.090,-69.336,-45.898,30.273
1790599671.065949,-59.570,-70.801,-51.758,-17.090
1790599671.069790,-3.418,-59.570,-49.316,28.809
1790599671.073631,98.145,-69.824,-49.805,97.656
1790599671.077471,39.062,-80.566,-53.223,49.805
1790599671.081312,-75.195,-68.848,-60.547,-15.625
1790599671.085153,0.488,-52.246,-50.293,10.742
1790599671.088994,121.094,-54.199,-44.434,96.680
1790599671.092834,52.734,-74.219,-55.176,73.242
1790599671.096675,-76.660,-74.707,-54.688,-19.531
1790599671.101204,-79.102,-67.383,-45.410,-15.137
1790599671.105045,65.918,-68.359,-36.133,81.055
1790599671.108887,123.047,-73.730,-43.457,81.055
1790599671.112728,-18.555,-80.566,-54.688,-16.113
1790599671.116570,-78.125,-77.637,-52.734,-44.922
1790599671.120411,44.434,-67.871,-53.223,19.043
1790599671.124253,119.629,-67.871,-56.641,83.496
1790599671.128094,20.020,-71.777,-47.852,42.480
1790599671.131936,-64.453,-69.336,-40.039,-35.156
1790599671.135777,20.996,-56.641,-37.598,8.789
1790599671.139618,120.117,-61.523,-35.645,118.164
1790599671.143460,39.062,-67.383,-36.621,78.125
1790599671.148032,-76.172,-72.266,-43.945,-9.277
1790599671.151875,-36.621,-64.453,-42.969,23.438
1790599671.155717,96.191,-58.594,-35.156,94.727
1790599671.159559,90.332,-58.105,-38.574,63.477
1790599671.163401,-43.945,-62.988,-51.270,-31.738
1790599671.167243,-52.246,-84.473,-61.035,-22.949
1790599671.171086,87.402,-80.078,-59.570,60.059
1790599671.174928,102.051,-70.801,-54.688,73.242
1790599671.178770,-21.484,-76.660,-49.316,-12.207
1790599671.182612,-69.336,-66.406,-50.293,-47.852
1790599671.186455,14.160,-68.359,-51.270,34.180
1790599671.190297,104.004,-74.707,-44.922,96.680
1790599671.194743,27.832,-57.129,-46.875,39.062
1790599671.198586,-56.152,-63.965,-59.570,-21.973
1790599671.202429,-17.578,-72.754,-61.523,-3.418
1790599671.206271,84.473,-43.457,-50.781,67.383
1790599671.210114,67.871,-58.105,-49.805,53.711
1790599671.213957,-52.246,-94.727,-58.105,-11.719
1790599671.217800,-45.898,-67.871,-59.570,-25.391
1790599671.221642,93.750,-50.781,-47.363,63.965
1790599671.225485,97.168,-74.219,-46.875,98.633
1790599671.229328,-51.270,-71.777,-50.293,-10.742
1790599671.233171,-80.566,-66.406,-43.945,-23.438
1790599671.237014,45.410,-64.453,-34.180,66.406
1790599671.242375,111.328,-60.547,-40.039,92.285
1790599671.246219,-9.766,-64.941,-51.758,-3.906
1790599671.250064,-87.891,-64.941,-44.434,-58.594
1790599671.253908,2.930,-62.012,-35.156,4.395
1790599671.257752,102.051,-59.082,-33.203,75.684
1790599671.261596,32.227,-62.988,-34.668,39.062
1790599671.265441,-56.152,-68.359,-41.016,-29.785
1790599671.269285,-2.930,-74.219,-35.156,18.555
1790599671.273129,136.230,-66.895,-37.109,122.070
1790599671.276974,87.402,-42.480,-49.805,67.871
1790599671.280818,-89.844,-41.016,-51.270,-31.738
1790599671.284662,-68.359,-41.992,-49.805,-20.996
1790599671.289408,76.172,-30.273,-51.758,39.551
1790599671.293253,96.680,-26.367,-63.965,59.570
1790599671.297098,-20.020,-22.949,-73.730,-22.949
1790599671.300943,-71.289,-21.973,-87.891,-46.875
1790599671.304789,31.738,-23.926,-97.168,30.762
1790599671.308634,119.141,-23.438,-95.703,62.500
1790599671.312479,0.977,-20.020,-98.145,-22.461
1790599671.316324,-88.867,-28.320,-102.539,-91.309
1790599671.320169,14.648,-30.762,-106.445,-24.902
1790599671.324015,125.488,-27.832,-96.191,61.035
1790599671.327860,76.172,-28.320,-82.031,20.996
1790599671.331705,-30.273,-19.043,-82.031,-41.992
1790599671.336371,-25.879,-30.762,-99.121,-1.465
1790599671.340217,86.914,-31.738,-94.238,71.289
1790599671.344063,83.008,-15.137,-78.613,50.781
1790599671.347909,-23.438,-22.461,-83.496,-14.648
1790599671.351755,-41.992,-42.969,-85.449,-41.504
1790599671.355601,84.961,-33.203,-71.777,37.598
1790599671.359447,140.137,-42.969,-63.965,89.355
1790599671.363293,-5.859,-62.988,-67.871,17.090
1790599671.367139,-65.918,-50.293,-72.754,-15.137
1790599671.370985,37.598,-34.180,-62.012,37.598
1790599671.374831,139.160,-35.645,-56.641,85.938
1790599671.378677,58.594,-48.340,-70.312,8.789
1790599671.383296,-64.453,-59.082,-62.988,-42.969
1790599671.387142,9.766,-52.734,-52.246,20.996
1790599671.390989,161.621,-41.504,-54.688,94.238
1790599671.394836,95.215,-51.270,-61.035,42.969
1790599671.398682,-66.895,-72.754,-64.941,-42.480
1790599671.402529,-40.039,-69.824,-56.641,-4.883
1790599671.406376,101.562,-44.434,-61.523,81.055
1790599671.410223,100.098,-40.527,-69.336,84.961
1790599671.414069,-41.504,-40.527,-60.059,4.395
1790599671.417916,-57.129,-37.109,-48.828,-17.578
1790599671.421763,104.492,-41.016,-46.387,82.031
1790599671.425610,170.898,-42.969,-41.504,104.980
1790599671.430120,49.316,-44.434,-42.969,10.742
1790599671.433967,-29.785,-42.480,-51.758,-27.832
1790599671.437815,37.109,-47.852,-48.340,39.551
1790599671.441662,108.398,-52.734,-42.969,107.910
1790599671.445510,43.945,-49.316,-38.086,46.875
1790599671.449357,-31.738,-64.453,-40.527,-31.250
1790599671.453204,11.719,-79.102,-43.457,24.902
1790599671.457052,122.070,-53.223,-40.039,136.230
1790599671.460899,80.078,-37.598,-37.109,72.754
1790599671.464746,-55.664,-43.945,-36.621,-36.621
1790599671.468594,-30.762,-56.152,-47.852,-2.930
1790599671.472441,108.398,-57.129,-50.781,81.055
1790599671.476941,121.094,-54.688,-43.457,83.496
1790599671.480789,-11.719,-65.918,-46.387,8.301
1790599671.484637,-56.152,-62.988,-51.758,4.395
1790599671.488485,83.496,-53.223,-47.363,99.121
1790599671.492332,150.879,-54.199,-36.621,140.625
1790599671.496181,-19.531,-66.406,-45.898,33.203
1790599671.500029,-104.004,-81.543,-54.688,-21.484
1790599671.503876,0.977,-61.035,-42.969,28.809
1790599671.507725,104.004,-46.875,-36.621,77.148
1790599671.511573,33.203,-67.871,-43.945,31.250
1790599671.515420,-84.473,-78.613,-62.012,-20.508
1790599671.519269,-17.090,-64.453,-61.523,5.371
1790599671.523724,155.273,-47.852,-43.945,71.289
1790599671.527572,97.168,-62.988,-49.316,50.781
1790599671.531421,-69.336,-71.289,-54.688,-26.367
1790599671.535269,-72.266,-59.570,-49.316,-5.859
1790599671.539118,52.246,-56.152,-43.945,78.125
1790599671.542967,97.656,-55.176,-40.039,103.027
1790599671.546815,-39.551,-59.570,-50.781,13.184
1790599671.550664,-90.820,-73.242,-57.617,-40.527
1790599671.554512,31.738,-60.059,-47.852,36.621
1790599671.558361,99.121,-39.551,-51.270,96.191
1790599671.562209,-2.441,-54.199,-56.641,17.578
1790599671.566058,-86.914,-68.848,-48.340,-65.430
1790599671.570427,13.672,-63.965,-46.387,-8.789
1790599671.574275,119.629,-61.035,-45.898,73.242
1790599671.578125,21.484,-62.500,-41.016,40.527
1790599671.581974,-87.402,-59.570,-49.316,-29.785
1790599671.585823,-28.320,-68.359,-56.152,0.488
1790599671.589672,100.098,-67.383,-55.664,87.891
1790599671.593521,83.496,-50.781,-51.270,57.617
1790599671.597370,-64.453,-58.594,-44.434,-22.949
1790599671.601219,-105.957,-69.336,-42.480,-20.020
1790599671.605068,37.598,-59.082,-38.574,59.082
1790599671.608917,101.562,-58.594,-47.852,63.477
1790599671.612766,-39.551,-61.035,-47.852,-22.949
1790599671.617528,-81.543,-61.523,-46.387,-51.270
1790599671.621378,26.855,-61.523,-49.805,34.668
1790599671.625228,89.844,-51.270,-46.387,81.055
1790599671.629078,-2.930,-59.570,-47.363,-0.977
1790599671.632927,-93.750,-65.918,-53.223,-46.387
1790599671.636777,-7.812,-68.848,-46.875,24.902
1790599671.640627,117.188,-65.918,-39.551,96.680
1790599671.644477,39.062,-53.223,-42.969,12.695
1790599671.648327,-70.312,-63.965,-52.246,-62.012
1790599671.652177,-22.461,-70.801,-50.781,-22.461
1790599671.656027,87.402,-49.805,-38.574,50.781
1790599671.659876,60.547,-40.527,-34.668,55.664
1790599671.664595,-75.684,-60.547,-43.945,-21.484
1790599671.668445,-87.402,-58.594,-49.316,-39.062
1790599671.672296,35.645,-39.062,-35.645,37.598
1790599671.676147,93.262,-65.430,-31.250,56.152
1790599671.679997,-20.020,-69.824,-42.969,-20.508
1790599671.683848,-69.336,-50.781,-50.781,-45.410
1790599671.687698,35.645,-48.828,-44.922,27.344
1790599671.691549,109.863,-34.668,-43.945,65.918
1790599671.695400,15.625,-48.828,-49.316,12.207
1790599671.699250,-88.867,-59.570,-47.363,-33.691
1790599671.703101,-44.434,-52.734,-38.574,-9.277
1790599671.706952,84.473,-58.594,-34.668,62.012
1790599671.711612,0.000,-63.965,-35.156,20.508
1790599671.715463,0.000,-62.500,-40.527,-56.641
1790599671.719315,0.000,-60.059,-37.109,-21.973
1790599671.723166,0.000,-55.664,-32.715,63.477
1790599671.727017,0.000,-47.363,-36.133,51.758
1790599671.730869,0.000,-63.477,-45.410,-25.879
1790599671.734720,0.000,-79.102,-50.293,-24.414
1790599671.738571,0.000,-68.359,-47.363,75.195
1790599671.742423,0.000,-75.195,-49.316,107.422
1790599671.746274,0.000,-78.125,-43.945,10.742
1790599671.750125,0.000,-52.246,-32.715,-59.082
1790599671.753977,0.000,-54.199,-32.227,2.441
1790599671.757427,39.551,-62.012,-36.133,73.730
1790599671.761278,-85.938,-59.570,-37.109,12.695
1790599671.765130,-58.594,-58.105,-39.551,-49.316
1790599671.768981,89.844,-71.777,-39.551,1.953
1790599671.772831,119.629,-69.824,-37.598,85.449
1790599671.776682,-27.832,-54.199,-40.039,41.016
1790599671.780533,-76.660,-64.453,-42.969,-45.410
1790599671.784384,57.129,-66.406,-48.828,-8.789
1790599671.788235,138.672,-58.594,-49.316,83.008
1790599671.792086,12.695,-42.969,-32.227,77.148
1790599671.795937,-106.445,-30.762,-30.273,-9.277
1790599671.799788,-15.137,-40.039,-44.434,-42.969
1790599671.804262,42.480,-46.387,-43.457,24.414
1790599671.808114,104.492,-41.992,-32.227,73.730
1790599671.811965,13.672,-53.711,-36.621,9.766
1790599671.815817,-69.824,-68.359,-44.922,-47.852
1790599671.819668,-2.441,-69.336,-47.363,4.883
1790599671.823520,107.910,-62.012,-41.504,78.125
1790599671.827371,42.480,-63.477,-45.410,40.039
1790599671.831223,-80.078,-73.242,-59.570,-29.297
1790599671.835074,-50.781,-70.312,-54.199,-14.648
1790599671.838926,98.633,-77.148,-41.992,69.336
1790599671.842777,78.613,-67.871,-44.922,43.945
1790599671.846629,-103.516,-62.012,-55.176,-46.387
1790599671.851073,-81.543,-73.730,-58.594,-46.875
1790599671.854925,103.027,-69.824,-55.664,37.598
1790599671.858777,105.469,-60.059,-59.570,68.848
1790599671.862629,-55.664,-82.520,-68.359,-25.879
1790599671.866481,-118.164,-79.102,-55.176,-40.039
1790599671.870333,4.883,-63.477,-43.457,52.246
1790599671.874185,120.605,-73.730,-54.199,83.008
1790599671.878037,-4.883,-71.289,-50.293,0.488
1790599671.881889,-109.375,-69.336,-43.457,-58.594
1790599671.885741,-18.066,-64.453,-47.363,-1.953
1790599671.889593,116.211,-73.242,-57.617,72.266
1790599671.893445,41.992,-74.707,-53.223,39.062
1790599671.897821,-80.566,-61.035,-42.480,-44.434
1790599671.901674,-26.367,-61.523,-49.316,-20.020
1790599671.905526,108.887,-66.895,-50.781,118.164
1790599671.909379,80.078,-77.637,-43.945,74.219
1790599671.913231,-125.977,-89.355,-42.969,-88.379
1790599671.917084,-136.230,-99.609,-48.828,-83.008
1790599671.920936,29.297,-100.586,-56.152,20.020
1790599671.924788,44.434,-90.332,-43.457,53.711
1790599671.928641,-82.031,-90.332,-27.344,-22.949
1790599671.932493,-128.906,-91.309,-38.574,-73.730
1790599671.936346,20.020,-83.496,-41.016,-5.859
1790599671.940198,94.727,-76.172,-35.156,60.059
1790599671.944581,-74.219,-78.125,-37.109,-2.930
1790599671.948434,-154.297,-90.820,-47.852,-72.754
1790599671.952287,-78.125,-89.844,-49.316,-33.203
1790599671.956140,59.570,-81.543,-39.551,62.012
1790599671.959993,38.086,-78.125,-38.574,26.855
1790599671.963846,-109.863,-84.473,-49.316,-43.457
1790599671.967699,-81.543,-78.125,-47.363,-6.836
1790599671.971551,79.102,-74.707,-28.809,103.027
1790599671.975405,78.125,-76.172,-28.320,101.074
1790599671.979257,-65.430,-66.895,-37.598,-19.043
1790599671.983110,-97.168,-72.266,-35.645,-35.645
1790599671.986963,50.293,-70.801,-26.367,43.945
1790599671.991647,116.211,-71.777,-18.555,83.496
1790599671.995501,-39.062,-70.801,-13.672,-21.484
1790599671.999355,-100.586,-68.359,-17.578,-73.242
1790599672.003208,11.719,-64.453,-16.113,28.320
1790599672.007062,85.938,-66.895,-19.531,85.449
1790599672.010916,-8.301,-75.195,-34.668,9.766
1790599672.014769,-112.793,-80.078,-38.086,-37.109
1790599672.018623,-48.340,-74.219,-32.227,14.160
1790599672.022476,115.723,-71.777,-31.250,84.473
1790599672.026330,65.918,-73.730,-26.855,58.594
1790599672.030184,-89.355,-68.848,-30.762,-24.414
1790599672.034037,-84.961,-63.477,-41.504,-19.043
1790599672.038694,66.895,-66.406,-41.504,75.195
1790599672.042548,100.586,-73.730,-39.551,74.707
1790599672.046402,-48.340,-68.359,-42.480,-18.555
1790599672.050257,-91.309,-69.824,-42.480,-20.020
1790599672.054111,15.137,-69.336,-27.344,40.527
1790599672.057965,63.477,-66.406,-24.414,56.641
1790599672.061820,-54.688,-69.824,-29.785,-31.738
1790599672.065674,-138.184,-58.594,-23.438,-74.707
1790599672.069528,-36.621,-65.918,-18.555,20.508
1790599672.073382,86.914,-74.707,-20.508,96.680
1790599672.077237,2.930,-68.359,-14.160,17.090
1790599672.081091,-114.746,-71.777,-20.508,-60.547
1790599672.085695,-87.402,-70.801,-25.391,-39.062
1790599672.089550,41.016,-70.801,-19.043,31.250
1790599672.093404,16.113,-71.777,-13.184,-0.488
1790599672.097259,-131.836,-67.871,-21.973,-73.242
1790599672.101114,-112.305,-80.566,-35.156,-51.270
1790599672.104969,44.922,-82.520,-34.668,46.875
1790599672.108824,55.664,-76.660,-46.387,43.945
1790599672.112679,-86.914,-89.844,-57.129,-57.617
1790599672.116534,-105.469,-91.309,-58.594,-56.641
1790599672.120389,15.625,-72.754,-50.781,20.020
1790599672.124243,87.402,-62.012,-32.715,63.965
1790599672.128098,-10.742,-66.406,-35.645,0.000
1790599672.132591,-112.305,-74.219,-50.293,-33.691
1790599672.136446,-30.273,-81.543,-47.363,2.930
1790599672.140302,112.305,-79.102,-36.621,64.941
1790599672.144157,41.504,-75.195,-46.875,35.645
1790599672.148013,-103.027,-80.078,-58.105,-49.805
1790599672.151868,-48.340,-73.730,-51.270,-17.090
1790599672.155723,72.754,-77.148,-47.852,72.754
1790599672.159579,41.992,-91.797,-59.570,78.613
1790599672.163434,-78.613,-79.102,-61.523,-15.137
1790599672.167290,-101.074,-64.941,-47.363,-42.969
1790599672.171145,23.438,-76.660,-44.922,59.570
1790599672.175000,72.754,-90.332,-53.711,71.289
1790599672.179417,-51.270,-89.844,-57.617,-35.156
1790599672.183273,-114.746,-83.984,-60.059,-77.148
1790599672.187129,25.879,-75.195,-62.012,-1.465
1790599672.190985,117.676,-69.336,-63.965,63.477
1790599672.194841,-15.137,-74.707,-59.570,-17.578
1790599672.198697,-118.652,-75.195,-61.523,-74.219
1790599672.202552,-27.832,-70.801,-66.406,-4.883
1790599672.206408,115.723,-74.219,-60.059,85.449
1790599672.210264,35.156,-71.289,-61.523,38.574
1790599672.214120,-114.258,-69.824,-59.570,-50.293
1790599672.217976,-59.570,-82.031,-60.059,-18.555
1790599672.221832,83.496,-71.777,-50.781,72.754
1790599672.226198,67.383,-49.805,-42.969,60.547
1790599672.230055,-75.684,-57.129,-50.781,-14.160
1790599672.233911,-89.844,-64.453,-63.965,-15.137
1790599672.237767,48.828,-62.012,-62.012,50.781
1790599672.241623,120.117,-52.246,-48.828,96.191
1790599672.245480,-13.184,-65.430,-56.641,-3.906
1790599672.249336,-104.004,-89.355,-57.617,-54.199
1790599672.253192,3.418,-75.684,-42.480,35.645
1790599672.257049,120.117,-47.852,-24.902,81.055
1790599672.260905,33.691,-47.852,-29.297,31.738
1790599672.264761,-82.520,-60.059,-40.527,-6.836
1790599672.268617,-25.391,-59.570,-37.109,11.719
1790599672.272949,108.887,-55.176,-35.645,71.289
1790599672.276805,52.246,-82.520,-43.945,48.828
1790599672.280662,-92.773,-87.402,-49.316,-37.109
1790599672.284519,-59.570,-64.941,-47.852,-35.156
1790599672.288375,91.309,-63.965,-39.062,49.805
1790599672.292232,79.102,-50.781,-33.691,67.871
1790599672.296089,-68.848,-55.664,-43.457,-19.043
1790599672.299945,-98.633,-65.430,-47.363,-54.688
1790599672.303802,53.223,-44.922,-33.691,42.969
1790599672.307659,132.812,-47.363,-28.320,121.094
1790599672.311515,-16.113,-54.199,-36.133,12.695
1790599672.315372,-87.402,-38.574,-39.551,-56.152
1790599672.319676,35.156,-43.457,-39.551,60.059
1790599672.323533,154.785,-49.316,-31.738,140.137
1790599672.327390,16.113,-43.457,-20.508,32.227
1790599672.331247,-125.977,-43.945,-16.602,-60.547
1790599672.335104,-61.035,-42.480,-18.066,-2.441
1790599672.338961,85.938,-45.898,-20.508,104.004
1790599672.342818,56.641,-49.316,-21.484,64.453
1790599672.346675,-75.195,-48.340,-24.902,-34.180
1790599672.350532,-50.781,-57.129,-29.297,-19.531
1790599672.354389,88.379,-57.617,-27.344,69.824
1790599672.358246,108.398,-49.316,-24.414,72.754
1790599672.362103,-49.805,-48.828,-24.902,-28.809
1790599672.366740,-102.051,-56.152,-25.879,-53.223
1790599672.370597,47.852,-59.570,-29.297,19.043
1790599672.374454,119.629,-53.711,-26.855,85.938
1790599672.378312,-15.137,-58.594,-21.973,11.230
1790599672.382170,-99.121,-64.453,-31.738,-51.270
1790599672.386027,21.973,-66.895,-33.691,38.574
1790599672.389885,118.652,-62.988,-26.855,91.309
1790599672.393743,-10.742,-49.316,-29.785,20.020
1790599672.397600,-107.422,-48.828,-30.273,-37.598
1790599672.401458,-45.410,-53.223,-29.297,-3.418
1790599672.405315,92.773,-46.875,-21.973,83.496
1790599672.409173,62.012,-48.340,-16.113,66.406
1790599672.413785,-77.148,-55.176,-25.879,-14.648
1790599672.417643,-85.938,-67.871,-37.109,-6.836
1790599672.421501,59.570,-58.594,-29.785,55.176
1790599672.425359,107.422,-47.363,-26.367,78.613
1790599672.429217,-56.152,-55.664,-39.062,13.672
1790599672.433075,-115.234,-58.105,-47.363,-24.902
1790599672.436934,11.719,-59.570,-41.504,52.246
1790599672.440792,100.586,-59.082,-37.109,114.746
1790599672.444650,-11.719,-65.918,-40.039,42.480
1790599672.448508,-106.934,-61.523,-40.039,-50.781
1790599672.452366,-11.230,-52.246,-33.691,-13.672
1790599672.456224,141.602,-57.617,-29.785,74.219
1790599672.460744,61.523,-56.641,-30.762,33.203
1790599672.464602,-105.469,-52.246,-38.574,-35.645
1790599672.468461,-77.148,-57.129,-45.898,-14.160
1790599672.472320,73.242,-49.805,-42.480,90.332
1790599672.476178,79.590,-56.152,-44.922,79.590
1790599672.480037,-62.988,-69.336,-45.898,-24.414
1790599672.483896,-87.402,-61.035,-40.527,-30.273
1790599672.487754,43.945,-50.781,-36.621,66.406
1790599672.491613,96.191,-59.082,-41.504,108.887
1790599672.495472,-44.922,-65.430,-45.898,6.836
1790599672.499331,-124.512,-75.195,-47.852,-52.734
1790599672.503189,-4.883,-87.402,-51.270,7.812
1790599672.507652,88.379,-83.496,-47.363,81.543
1790599672.511511,-32.227,-74.707,-42.480,13.672
1790599672.515371,-129.395,-68.359,-44.434,-61.035
1790599672.519230,-25.391,-64.941,-50.781,-2.930
1790599672.523089,114.258,-60.059,-48.340,68.848
1790599672.526948,45.898,-63.477,-48.828,29.785
1790599672.530807,-66.406,-55.664,-47.363,-34.668
1790599672.534666,-40.039,-56.152,-47.363,-8.789
1790599672.538525,72.266,-57.617,-51.270,84.473
1790599672.542384,67.383,-53.711,-44.434,62.988
1790599672.546243,-62.500,-62.988,-53.223,-35.645
1790599672.550103,-86.426,-63.477,-65.430,-40.039
1790599672.554545,47.852,-50.781,-51.758,44.434
1790599672.558405,112.305,-57.129,-47.363,79.590
1790599672.562265,-1.953,-67.383,-52.734,9.766
1790599672.566124,-81.055,-58.105,-45.898,-40.527
1790599672.569984,-9.277,-68.359,-31.250,0.488
1790599672.573843,87.402,-64.941,-26.367,81.543
1790599672.577703,34.668,-54.688,-35.156,41.016
1790599672.581563,-67.383,-69.824,-49.805,-41.992
1790599672.585422,-39.062,-61.523,-47.852,-0.488
1790599672.589282,75.195,-41.504,-35.645,72.754
1790599672.593141,36.133,-62.988,-38.574,39.551
1790599672.597001,-78.125,-80.566,-46.387,-23.438
1790599672.601371,-80.078,-67.871,0.000,-28.320
1790599672.605231,48.828,-63.965,0.000,52.734
1790599672.609091,73.242,-75.684,0.000,81.055
1790599672.612951,-62.988,-88.379,0.000,-26.367
1790599672.616810,-97.168,-76.172,0.000,-63.477
1790599672.620670,57.617,-61.035,0.000,28.809
1790599672.624530,148.438,-55.176,0.000,94.238
1790599672.628390,0.488,-57.129,0.000,10.254
1790599672.632250,-82.520,-63.477,0.000,-50.293
1790599672.636110,8.301,-67.383,0.000,28.320
1790599672.639970,122.559,-72.266,0.000,115.234
1790599672.643830,34.180,-76.172,0.000,61.035
1790599672.648148,-90.820,-64.941,-37.109,-15.137
1790599672.652009,-0.488,-54.199,-43.457,17.090
1790599672.655869,118.164,-55.664,-54.688,82.031
1790599672.659729,73.730,-58.594,-48.340,44.922
1790599672.663589,-77.148,-71.289,-51.270,-35.645
1790599672.667450,-64.453,-72.754,-59.082,-27.344
1790599672.671310,91.797,-68.848,-57.617,68.848
1790599672.675170,90.332,-57.617,-50.293,93.262
1790599672.679031,-51.758,-70.312,-43.457,6.836
1790599672.682891,-67.383,-94.727,-49.805,5.371
1790599672.686751,83.984,-71.777,-53.223,104.980
1790599672.690611,123.535,-41.016,-62.012,122.559
1790599672.695250,-28.809,-41.016,-72.754,16.602
1790599672.699111,-104.492,-46.387,-80.078,-41.016
1790599672.702972,-7.324,-44.922,-85.449,-16.113
1790599672.706833,131.348,-39.551,-81.543,60.059
1790599672.710694,65.918,-30.273,-89.844,4.883
1790599672.714554,-79.102,-40.527,-113.281,-83.496
1790599672.718415,-45.410,-42.480,-112.793,-39.062
1790599672.722276,85.938,-20.508,-102.051,32.715
1790599672.726137,91.309,-17.090,-106.934,31.738
1790599672.729998,-8.789,-26.367,-114.746,-61.035
1790599672.733859,-29.297,-31.250,-115.723,-71.777
1790599672.737719,69.824,-29.785,-108.887,33.691
1790599672.742319,103.516,-37.598,-110.352,58.105
1790599672.746180,-24.902,-46.387,-115.723,-29.785
1790599672.750042,-56.152,-46.875,-104.492,-61.035
1790599672.753903,60.547,-39.551,-93.262,13.672
1790599672.757764,140.625,-40.039,-101.074,67.383
1790599672.761626,27.832,-53.223,-107.910,-0.488
1790599672.765487,-92.285,-62.500,-106.445,-62.988
1790599672.769349,0.488,-56.641,-97.168,-33.203
1790599672.773210,140.137,-48.828,-89.355,58.594
1790599672.777071,62.988,-53.711,-89.844,41.504
1790599672.780933,-53.711,-62.012,-88.867,-39.062
1790599672.784794,-16.113,-62.012,-87.891,-24.902
1790599672.789312,97.656,-65.430,-91.309,41.016
1790599672.793174,86.914,-67.383,-90.820,45.898
1790599672.797035,-47.363,-66.406,-81.543,-24.902
1790599672.800897,-48.828,-65.430,-78.613,-42.480
1790599672.804759,78.613,-62.988,-75.684,43.945
1790599672.808621,129.395,-73.242,-72.266,84.961
1790599672.812483,-0.488,-73.730,-74.707,-3.906
1790599672.816344,-77.637,-62.988,-72.266,-30.762
1790599672.820206,41.504,-58.594,-71.289,61.035
1790599672.824068,147.949,-63.965,-69.336,103.027
1790599672.827930,33.691,-61.035,-66.895,9.277
1790599672.831792,-70.801,-61.523,-70.312,-42.480
1790599672.836330,-2.930,-62.988,-69.824,18.066
1790599672.840192,104.492,-50.781,-72.266,77.148
1790599672.844054,71.777,-59.082,-72.266,21.973
1790599672.847917,-29.785,-73.730,-73.730,-42.969
1790599672.851779,-18.555,-64.941,-78.125,-22.461
1790599672.855641,87.891,-60.547,-71.289,57.617
1790599672.859504,78.125,-59.082,-61.035,58.105
1790599672.863366,-71.777,-64.453,-63.477,-35.645
1790599672.867228,-83.496,-69.336,-72.266,-41.992
1790599672.871091,52.246,-60.059,-60.059,46.875
1790599672.874953,109.863,-60.547,-45.898,82.031
1790599672.878815,10.254,-62.012,-49.805,6.348
1790599672.883269,0.000,-55.664,-52.246,-34.180
1790599672.887132,0.000,-56.152,-45.410,32.715
1790599672.890995,0.000,-69.824,-41.016,110.352
1790599672.894857,0.000,-79.590,-46.387,41.992
1790599672.898720,0.000,-65.430,-47.852,-41.016
1790599672.902583,0.000,-68.848,-42.969,5.859
1790599672.906446,0.000,-66.895,-38.574,90.332
1790599672.910308,0.000,-62.500,-39.551,79.590
1790599672.914171,0.000,-65.918,-41.504,-6.348
1790599672.918034,0.000,-54.199,-29.297,-36.133
1790599672.921896,0.000,-55.664,-23.926,56.152
1790599672.925759,0.000,-55.664,-35.156,71.777
1790599672.930153,-20.996,-59.082,-38.086,-32.227
1790599672.934016,-65.430,-49.805,-37.109,-45.410
1790599672.937879,45.410,-48.828,-31.738,34.668
1790599672.941742,121.582,-55.664,-33.691,76.172
1790599672.945605,14.160,-60.059,-38.086,14.160
1790599672.949468,-75.195,-68.359,-42.969,-49.316
1790599672.953331,7.812,-65.430,-40.527,30.762
1790599672.957194,119.141,-58.105,-33.691,116.211
1790599672.961057,32.227,-66.406,-40.039,35.156
1790599672.964921,-97.168,-66.406,-45.898,-44.922
1790599672.968784,-20.508,-83.008,-49.805,-3.906
1790599672.972647,169.434,-77.148,-54.199,102.051
1790599672.976947,134.766,-39.062,-56.152,81.055
1790599672.980810,-87.891,-52.246,-54.199,-46.875
1790599672.984673,-111.816,-80.078,-58.105,-67.383
1790599672.988537,46.387,-77.637,-60.547,16.602
1790599672.992400,89.355,-68.848,-57.617,58.105
1790599672.996264,-35.156,-73.730,-61.035,-20.508
1790599673.000127,-116.699,-79.590,-65.918,-62.012
1790599673.003990,3.906,-77.637,-58.594,27.344
1790599673.007854,124.512,-70.312,-39.551,95.703
1790599673.011717,12.695,-62.012,-41.504,50.781
1790599673.015580,-66.895,-78.125,-50.781,-3.418
1790599673.019444,20.508,-74.219,-44.434,20.508
1790599673.023748,119.629,-51.758,-41.504,78.125
1790599673.027612,62.012,-59.570,-48.828,40.527
1790599673.031476,-71.289,-66.895,-54.688,-35.645
1790599673.035339,-38.086,-67.383,-57.617,-17.090
1790599673.039203,121.582,-70.312,-54.199,76.660
1790599673.043067,99.609,-64.941,-55.664,76.172
1790599673.046930,-62.012,-73.242,-60.059,-9.766
1790599673.050794,-67.871,-74.219,-60.059,-29.785
1790599673.054658,78.125,-45.898,-48.340,56.641
1790599673.058521,138.184,-41.016,-47.363,96.680
1790599673.062385,-8.789,-53.711,-48.340,23.926
1790599673.066249,-96.680,-60.059,-44.922,-20.020
1790599673.070463,13.672,-57.129,-35.645,32.715
1790599673.074327,126.953,-53.223,-29.785,93.262
1790599673.078191,39.062,-55.664,-42.969,36.621
1790599673.082055,-77.637,-66.406,-42.969,-27.344
1790599673.085919,-14.160,-76.660,-37.109,18.555
1790599673.089783,145.996,-64.941,-41.992,121.582
1790599673.093647,76.660,-46.875,-38.086,80.566
1790599673.097511,-72.266,-36.621,-34.180,-28.320
1790599673.101375,-42.969,-48.340,-35.645,0.000
1790599673.105238,113.770,-63.965,-35.156,92.285
1790599673.109102,137.207,-58.105,-40.527,90.332
1790599673.112966,-37.109,-59.082,-34.180,10.254
1790599673.117514,-89.355,-65.918,-30.273,-15.137
1790599673.121379,51.270,-62.012,-34.668,45.898
1790599673.125243,114.258,-58.105,-36.133,69.336
1790599673.129107,-23.438,-65.430,-41.992,-5.371
1790599673.132972,-104.004,-68.359,-52.246,-30.762
1790599673.136836,30.762,-61.523,-59.570,21.973
1790599673.140701,133.789,-65.918,-57.129,64.453
1790599673.144565,3.418,-57.129,-44.434,15.137
1790599673.148430,-93.750,-48.340,-45.898,-41.016
1790599673.152294,-1.465,-54.199,-48.828,-5.371
1790599673.156158,121.094,-56.152,-41.992,84.961
1790599673.160023,39.551,-60.059,-41.504,66.895
1790599673.164874,0.000,-75.684,-55.176,-36.133
1790599673.168739,0.000,-69.336,-59.570,-17.090
1790599673.172604,0.000,-53.223,-46.875,66.895
1790599673.176469,0.000,-55.664,-49.316,56.641
1790599673.180334,0.000,-76.172,-60.547,-15.137
1790599673.184199,0.000,-76.172,-59.570,-16.602
1790599673.188064,0.000,-53.711,-51.270,49.316
1790599673.191929,0.000,-43.457,-50.293,67.383
1790599673.195794,0.000,-64.941,-55.176,12.695
1790599673.199659,0.000,-82.520,-53.711,-17.090
1790599673.203524,0.000,-52.246,-38.574,43.457
1790599673.207389,0.000,-38.086,-44.922,84.473
1790599673.211798,36.621,-53.711,-55.664,-7.812
1790599673.215663,-98.145,-53.711,-60.059,-65.918
1790599673.219528,-31.250,-35.156,-63.477,-26.367
1790599673.223394,90.820,-33.203,-59.082,59.082
1790599673.227259,42.969,-46.875,-60.059,43.945
1790599673.231125,-73.730,-59.082,-61.523,-45.410
1790599673.234990,-43.457,-42.969,-54.199,-39.062
1790599673.238856,96.680,-34.668,-51.758,47.852
1790599673.242721,99.121,-45.410,-49.316,60.059
1790599673.246586,-57.129,-54.688,-52.246,-24.414
1790599673.250452,-92.285,-62.012,-64.941,-43.457
1790599673.254317,24.902,-65.430,-72.266,26.855
1790599673.258809,103.027,-61.523,-70.801,75.684
1790599673.262675,-8.301,-64.453,-51.758,14.648
1790599673.266540,-95.703,-68.359,-44.922,-43.457
1790599673.270406,1.465,-62.012,-50.781,9.766
1790599673.274272,121.094,-66.406,-47.363,91.309
1790599673.278138,26.855,-64.941,-43.945,41.016
1790599673.282004,-104.004,-71.289,-49.316,-49.805
1790599673.285870,-48.828,-67.871,-58.105,-15.137
1790599673.289735,110.352,-49.316,-53.711,76.172
1790599673.293601,77.637,-43.945,-43.945,63.965
1790599673.297467,-93.262,-49.316,-57.617,-14.648
1790599673.301333,-67.871,-58.105,-69.336,-36.621
1790599673.305683,72.266,-52.734,-56.152,44.922
1790599673.309549,88.867,-55.176,-49.805,63.477
1790599673.313416,-33.203,-60.547,-58.594,-25.391
1790599673.317281,-94.727,-55.664,-55.664,-50.781
1790599673.321148,0.977,-55.176,-50.781,23.438
1790599673.325014,88.379,-53.223,-55.176,103.516
1790599673.328880,-1.465,-52.734,-53.223,38.086
1790599673.332746,-98.145,-67.871,-59.082,-39.062
1790599673.336612,-28.809,-66.895,-50.293,3.906
1790599673.340478,118.652,-50.781,-36.133,80.566
1790599673.344345,65.918,-57.617,-41.992,46.387
1790599673.348211,-39.551,-70.312,-49.805,-52.246
1790599673.352498,-52.734,-62.988,-52.734,-26.855
1790599673.356364,46.875,-57.129,-51.270,75.195
1790599673.360231,75.195,-51.758,-47.852,67.871
1790599673.364097,-85.449,-58.105,-50.293,-20.508
1790599673.367964,-85.449,-58.105,-50.781,-42.969
1790599673.371830,78.613,-56.641,-47.363,36.621
1790599673.375696,96.191,-68.359,-46.875,99.121
1790599673.379563,-68.359,-62.988,-46.387,8.789
1790599673.383429,-120.605,-50.293,-42.480,-67.383
1790599673.387296,13.184,-47.852,-39.551,8.301
1790599673.391162,119.141,-57.617,-40.039,103.516
1790599673.395029,10.254,-62.500,-45.898,39.062
1790599673.399296,-117.188,-62.012,-42.969,-43.945
1790599673.403163,-39.551,-67.383,-48.340,-10.254
1790599673.407029,96.680,-58.105,-58.105,74.707
1790599673.410896,48.340,-58.594,-53.223,42.480
1790599673.414763,-75.684,-69.824,-55.176,-58.105
1790599673.418629,-55.176,-69.824,-59.570,-41.016
1790599673.422496,86.914,-85.938,-59.082,58.105
1790599673.426363,67.383,-77.148,-49.805,57.617
1790599673.430229,-97.656,-50.781,-38.086,-54.688
1790599673.434096,-107.910,-62.988,-43.457,-54.688
1790599673.437963,65.918,-75.684,-49.316,47.852
1790599673.441829,118.652,-75.684,-54.199,60.059
1790599673.446014,-49.316,-76.172,-52.246,-26.367
1790599673.449881,-125.000,-69.824,-51.758,-49.316
1790599673.453748,-18.555,-50.781,-50.781,18.066
1790599673.457615,109.863,-41.992,-40.527,79.102
1790599673.461482,12.207,-47.852,-41.992,17.090
1790599673.465349,-110.840,-62.012,-55.176,-34.180
1790599673.469216,-47.852,-68.359,-64.453,0.000
1790599673.473083,74.219,-69.336,-44.922,55.664
1790599673.476949,47.852,-60.547,-33.203,40.527
1790599673.480816,-87.402,-57.617,-48.828,-60.059
1790599673.484683,-76.172,-64.453,-54.199,-63.477
1790599673.488550,117.188,-48.828,-41.992,40.039
1790599673.493030,132.812,-48.340,-36.133,79.102
1790599673.496897,-69.336,-60.059,-46.875,-19.531
1790599673.500765,-118.652,-54.688,-63.477,-63.965
1790599673.504632,19.531,-52.246,-55.664,32.227
1790599673.508499,109.863,-59.082,-47.852,88.867
1790599673.512367,-17.090,-66.406,-52.734,4.883
1790599673.516234,-125.488,-63.965,-52.734,-49.316
1790599673.520101,-29.785,-56.152,-49.316,-5.371
1790599673.523968,116.699,-64.941,-47.363,56.641
1790599673.527835,40.527,-69.824,-47.363,23.926
1790599673.531703,-84.961,-55.176,-45.410,-62.988
1790599673.535570,-70.801,-53.711,-44.922,-24.414
1790599673.539992,78.125,-53.711,-45.410,72.266
1790599673.543860,91.309,-60.547,-45.410,61.035
1790599673.547728,-72.266,-73.242,-48.828,-25.391
1790599673.551595,-99.609,-71.289,-50.781,-35.645
1790599673.555463,49.805,-65.918,-47.363,46.387
1790599673.559330,108.887,-47.852,-49.316,68.848
1790599673.563198,-36.621,-51.758,-50.293,-19.043
1790599673.567065,-105.957,-75.195,-55.176,-46.875
1790599673.570933,36.621,-70.312,-61.523,30.273
1790599673.574801,113.770,-54.199,-58.105,68.848
1790599673.578668,-39.062,-60.059,-51.270,-7.812
1790599673.582536,-116.699,-84.961,-57.129,-45.410
1790599673.586951,-22.461,-74.707,-56.152,-9.766
1790599673.590819,100.586,-55.664,-44.922,65.918
1790599673.594687,29.297,-63.477,-42.969,36.133
1790599673.598555,-80.566,-82.031,-46.875,-46.387
1790599673.602423,-52.246,-79.102,-50.781,-20.020
1790599673.606291,82.520,-70.801,-50.781,77.148
1790599673.610158,73.730,-73.242,-48.828,56.152
1790599673.614027,-75.195,-67.383,-48.828,-52.246
1790599673.617894,-65.918,-66.406,-60.059,-54.199
1790599673.621762,80.078,-63.477,-55.664,34.180
1790599673.625630,109.375,-53.223,-41.016,59.082
1790599673.629498,-49.805,-66.895,-47.852,-28.320
1790599673.633877,0.000,-77.637,-47.363,-65.918
1790599673.637746,0.000,-62.012,-43.457,16.113
1790599673.641614,0.000,-64.453,-48.828,88.867
1790599673.645482,0.000,-69.824,-58.594,8.301
1790599673.649350,0.000,-67.383,-58.105,-66.406
1790599673.653219,0.000,-65.918,-52.246,-2.441
1790599673.657087,0.000,-62.012,-44.434,77.148
1790599673.660955,0.000,-71.777,-49.805,33.203
1790599673.664823,0.000,-82.520,-59.570,-52.246
1790599673.668692,0.000,-78.613,-49.805,-50.293
1790599673.672560,0.000,-73.242,-37.598,46.875
1790599673.676428,0.000,-76.660,-41.504,62.012
1790599673.680777,-85.449,-75.684,-51.758,-45.410
1790599673.684646,-124.023,-58.594,-48.340,-65.430
1790599673.688514,33.691,-62.988,-49.805,25.879
1790599673.692383,116.211,-62.988,-47.852,69.336
1790599673.696251,-20.508,-74.219,-42.969,3.906
1790599673.700120,-111.816,-81.543,-47.363,-24.414
1790599673.703989,-15.625,-53.223,-44.434,18.066
1790599673.707857,90.820,-52.246,-50.781,71.289
1790599673.711725,24.414,-57.617,-53.711,22.461
1790599673.715594,-75.195,-51.758,-49.316,-47.852
1790599673.719463,-22.461,-64.941,-52.734,-2.441
1790599673.723331,116.211,-58.105,-50.781,85.938
1790599673.727640,41.504,-56.152,-48.340,44.922
1790599673.731508,-126.465,-79.102,-51.270,-40.039
1790599673.735377,-92.773,-82.031,-62.500,-28.320
1790599673.739246,76.660,-75.195,-63.477,60.059
1790599673.743115,122.559,-69.824,-50.293,72.266
1790599673.746984,-46.875,-74.219,-47.852,-19.531
1790599673.750853,-139.648,-80.566,-56.641,-37.598
1790599673.754721,6.348,-70.312,-51.758,10.254
1790599673.758590,96.191,-65.918,-41.504,37.598
1790599673.762459,-38.574,-65.430,-38.086,-20.020
1790599673.766328,-129.883,-78.613,-50.781,-59.570
1790599673.770197,-28.320,-80.078,-56.641,-3.418
1790599673.774410,107.910,-57.617,-39.551,76.172
1790599673.778280,23.438,-62.012,-41.016,43.457
1790599673.782149,-95.215,-67.383,-52.246,-19.531
1790599673.786018,-27.344,-71.777,-48.340,20.508
1790599673.789887,99.121,-76.660,-48.340,84.473
1790599673.793756,73.242,-68.848,-57.617,54.688
1790599673.797625,-39.551,-89.844,-61.035,-23.438
1790599673.801494,-74.707,-79.102,-53.223,-21.484
1790599673.805363,56.152,-38.086,-36.621,57.617
1790599673.809232,124.512,-46.387,-34.180,97.168
1790599673.813101,-42.480,-62.012,-46.875,8.301
1790599673.816970,-97.656,-55.176,-45.410,-50.293
1790599673.821142,42.969,-46.387,-34.180,42.480
1790599673.825011,134.277,-47.363,-29.297,101.562
1790599673.828881,38.086,-44.434,-32.715,27.344
1790599673.832750,-62.988,-51.270,-32.227,-33.203
1790599673.836619,12.695,-59.570,-34.180,20.020
1790599673.840488,127.441,-56.152,-37.598,108.887
1790599673.844357,51.758,-53.223,-34.180,65.430
1790599673.848227,-69.336,-40.039,-21.973,-28.320
1790599673.852096,-29.785,-35.645,-20.996,2.441
1790599673.855965,98.633,-46.387,-28.809,87.402
1790599673.859834,106.934,-56.152,-22.461,79.590
1790599673.863703,-19.043,-43.945,-19.531,-1.953
1790599673.868128,-23.926,-44.434,-32.715,0.488
1790599673.871998,106.445,-46.875,-36.133,83.008
1790599673.875867,115.723,-34.668,-33.203,102.051
1790599673.879737,-17.578,-45.410,-36.621,27.344
1790599673.883606,-44.434,-52.246,-36.621,-19.043
1790599673.887476,59.082,-48.828,-35.645,48.828
1790599673.891346,117.188,-43.945,-24.902,104.004
1790599673.895215,3.906,-38.574,-19.043,36.621
1790599673.899085,-98.633,-49.805,-33.691,-28.320
1790599673.902954,-20.020,-61.523,-39.551,14.160
1790599673.906824,104.004,-46.875,-32.227,85.938
1790599673.910693,75.684,-39.551,-30.273,55.176
1790599673.915074,-26.855,-49.316,-37.598,-20.508
1790599673.918944,-37.109,-43.457,-44.434,18.066
1790599673.922814,81.055,-30.273,-31.250,108.398
1790599673.926684,100.098,-28.809,-27.344,101.074
1790599673.930554,-33.203,-36.133,-41.992,-6.836
1790599673.934423,-46.875,-41.992,-48.340,-14.648
1790599673.938293,85.938,-36.133,-39.062,80.566
1790599673.942163,137.695,-32.227,-27.832,118.652
1790599673.946033,23.438,-41.016,-33.691,57.617
1790599673.949903,-32.715,-36.133,-36.621,-13.184
1790599673.953773,48.828,-32.227,-27.832,30.762
1790599673.957643,142.090,-54.199,-27.832,121.582
1790599673.961987,50.293,-50.293,-34.668,62.012
1790599673.965858,-77.148,-46.875,-39.551,-27.832
1790599673.969728,-23.926,-47.852,-34.180,26.855
1790599673.973598,102.539,-36.133,-29.297,105.469
1790599673.977468,61.523,-41.504,-38.574,65.430
1790599673.981338,-65.430,-54.688,-52.246,-27.832
1790599673.985208,-43.457,-55.176,-49.316,-16.602
1790599673.989078,106.445,-42.969,-36.621,93.262
1790599673.992948,129.883,-49.805,-43.457,87.402
1790599673.996818,-36.621,-60.059,-48.340,-14.160
1790599674.000689,-69.824,-51.270,-42.969,-3.418
1790599674.004559,86.426,-44.922,-45.410,70.312
1790599674.008905,140.625,-47.363,-52.734,91.309
1790599674.012776,-21.484,-48.340,-58.594,-0.488
1790599674.016646,-106.934,-59.570,-57.129,-49.805
1790599674.020517,28.320,-64.941,-56.152,6.348
1790599674.024387,152.832,-56.641,-50.293,62.012
1790599674.028257,50.293,-47.363,-46.387,39.062
1790599674.032128,-99.121,-31.250,-41.992,-22.461
1790599674.035998,-39.551,-41.992,-43.945,21.973
1790599674.039869,116.211,-44.922,-48.828,98.633
1790599674.043739,88.867,-33.691,-45.410,54.688
1790599674.047609,-20.508,-39.062,-50.293,2.930
1790599674.051480,-47.852,-53.711,-50.781,4.395
1790599674.055765,57.617,-60.059,-43.945,63.965
1790599674.059636,99.609,-48.340,-42.969,77.637
1790599674.063506,-45.898,-53.223,-47.363,-27.832
1790599674.067377,-110.352,-57.617,-46.387,-52.734
1790599674.071248,9.766,-54.199,-40.527,32.715
1790599674.075118,119.629,-60.547,-41.016,80.566
1790599674.078989,10.254,-68.359,-41.504,-2.930
1790599674.082860,-109.375,-72.754,-56.641,-58.105
1790599674.086730,-47.363,-63.965,-55.664,10.254
1790599674.090601,91.309,-57.129,-41.992,93.262
1790599674.094471,54.688,-61.523,-51.270,56.641
1790599674.098342,-88.379,-68.359,-61.035,-30.273
1790599674.102592,-87.402,-60.059,-54.688,-21.484
1790599674.106462,59.570,-53.223,-47.363,67.383
1790599674.110333,62.500,-63.477,-54.688,64.941
1790599674.114204,-77.637,-54.199,-53.711,-12.207
1790599674.118075,-65.430,-48.340,-50.293,-16.113
1790599674.121946,56.152,-66.406,-56.152,63.965
1790599674.125817,91.797,-76.172,-57.129,88.379
1790599674.129688,-33.203,-58.105,-59.570,-3.418
1790599674.133558,-85.938,-45.410,-61.523,-36.133
1790599674.137429,36.133,-45.410,-59.082,13.672
1790599674.141300,95.215,-62.500,-65.918,79.590
1790599674.145171,-25.391,-72.266,-64.453,38.574
1790599674.149410,-103.516,-52.734,-44.922,-33.203
1790599674.153281,-4.883,-49.805,-49.805,18.555
1790599674.157152,140.137,-49.316,-59.082,97.656
1790599674.161023,55.664,-47.852,-54.688,53.223
1790599674.164895,-95.215,-56.152,-58.594,-29.785
1790599674.168766,-38.086,-65.918,-58.594,-18.066
1790599674.172637,108.398,-62.012,-55.664,65.430
1790599674.176508,72.266,-49.805,-55.664,63.477
1790599674.180379,-91.797,-52.734,-51.758,-34.668
1790599674.184250,-85.938,-61.523,-57.129,-30.273
1790599674.188121,58.594,-58.105,-53.711,45.410
1790599674.191992,105.469,-57.617,-49.316,68.848
1790599674.196172,-10.254,-60.059,-54.199,-1.953
1790599674.200043,-95.703,-63.477,-59.570,-31.250
1790599674.203914,-3.906,-60.059,-61.035,38.086
1790599674.207785,98.145,-60.059,-63.477,86.914
1790599674.211657,13.672,-67.871,-67.871,34.180
1790599674.215528,-86.426,-67.871,-74.707,-27.832
1790599674.219399,-13.184,-57.617,-75.195,9.277
1790599674.223270,97.656,-51.270,-62.988,68.848
1790599674.227141,42.969,-59.082,-66.406,24.414
1790599674.231013,-75.684,-80.078,-76.172,-44.922
1790599674.234884,-41.504,-62.012,-69.336,-38.086
1790599674.238755,89.355,-48.828,-54.688,37.598
1790599674.243179,80.078,-63.965,-64.453,61.523
1790599674.247051,-48.828,-59.082,-67.383,-19.531
1790599674.250922,-86.914,-57.617,-59.570,-54.199
1790599674.254794,12.207,-52.246,-61.523,26.367
1790599674.258665,94.727,-45.410,-70.312,86.914
1790599674.262537,-21.973,-55.664,-74.219,5.371
1790599674.266408,-105.957,-61.523,-72.266,-51.270
1790599674.270280,9.766,-61.523,-73.242,2.441
1790599674.274152,113.281,-54.688,-74.219,77.148
1790599674.278023,28.320,-54.199,-75.684,24.414
1790599674.281895,-59.570,-62.988,-67.383,-45.898
1790599674.285766,5.859,-59.570,-65.918,12.207
1790599674.290155,0.000,-49.805,-73.242,97.656
1790599674.294027,0.000,-48.828,-74.219,59.570
1790599674.297899,0.000,-59.082,-68.359,-13.672
1790599674.301770,0.000,-63.965,-54.688,4.395
1790599674.305642,0.000,-50.293,-49.316,62.988
1790599674.309514,0.000,-59.082,-62.988,49.805
1790599674.313386,0.000,-64.453,-62.500,-41.504
1790599674.317258,0.000,-51.270,-55.176,-54.199
1790599674.321130,0.000,-54.688,-61.523,34.668
1790599674.325001,0.000,-56.641,-63.965,67.871
1790599674.328873,0.000,-49.316,-60.547,-21.973
1790599674.332745,0.000,-48.340,-63.477,-70.801
1790599674.337071,-14.648,-41.504,-59.570,5.371
1790599674.340944,105.469,-48.340,-55.176,91.309
1790599674.344816,2.930,-68.359,-51.758,31.250
1790599674.348688,-125.977,-66.895,-58.594,-52.734
1790599674.352560,-58.594,-57.617,-61.035,-12.207
1790599674.356432,85.449,-50.781,-55.664,81.055
1790599674.360304,65.918,-55.664,-59.570,43.945
1790599674.364176,-84.473,-67.871,-66.895,-36.621
1790599674.368048,-96.191,-65.430,-76.660,-23.438
1790599674.371920,56.152,-53.223,-65.918,41.504
1790599674.375793,95.215,-58.105,-51.270,65.918
1790599674.379665,-43.457,-64.941,-62.988,1.465
1790599674.383951,-83.984,-57.129,-67.871,-30.273
1790599674.387823,30.273,-45.410,-58.594,25.391
1790599674.391695,131.348,-40.039,-50.781,74.219
1790599674.395568,14.160,-46.875,-61.035,10.742
1790599674.399440,-118.164,-59.570,-66.895,-50.293
1790599674.403312,-49.805,-62.500,-64.453,5.371
1790599674.407185,72.266,-53.711,-59.570,92.285
1790599674.411057,39.062,-61.035,-63.965,57.129
1790599674.414929,-69.824,-58.594,-62.988,-25.879
1790599674.418802,-44.434,-45.410,-53.711,-19.043
1790599674.422674,98.633,-34.668,-57.129,70.312
1790599674.426546,96.680,-51.758,-58.105,66.895
1790599674.430815,0.000,-82.031,-58.594,-25.391
1790599674.434688,0.000,-45.898,-61.035,-28.809
1790599674.438560,0.000,-30.273,-63.477,45.898
1790599674.442433,0.000,-42.969,-59.570,83.496
1790599674.446305,0.000,-48.340,-57.129,16.113
1790599674.450178,0.000,-65.430,-63.477,-47.852
1790599674.454050,0.000,-57.129,-58.105,18.555
1790599674.457923,0.000,-51.758,-55.664,87.402
1790599674.461795,0.000,-60.547,-62.500,8.789
1790599674.465668,0.000,-56.152,-55.664,-38.574
1790599674.469540,0.000,-56.641,-56.641,11.719
1790599674.473413,0.000,-53.223,-56.152,87.891
1790599674.477160,-50.293,-47.363,-55.664,67.871
1790599674.481032,-60.059,-58.105,-61.035,-19.531
1790599674.484905,76.660,-71.777,-68.848,-9.766
1790599674.488777,136.230,-63.965,-64.941,70.801
1790599674.492650,4.395,-56.641,-53.711,60.547
1790599674.496522,-102.051,-83.008,-52.246,-18.555
1790599674.500394,-18.555,-94.238,-62.988,-18.066
1790599674.504267,100.586,-50.781,-62.500,63.965
1790599674.508139,-2.441,-32.227,-49.805,93.750
1790599674.512012,-108.887,-46.875,-48.340,16.602
1790599674.515884,-0.977,-55.664,-54.688,4.883
1790599674.519757,151.367,-46.875,-53.223,56.152
1790599674.523973,111.816,-27.832,-41.504,73.730
1790599674.527846,29.297,-34.180,-47.363,2.930
1790599674.531718,-95.215,-48.828,-59.082,-53.711
1790599674.535591,-31.250,-53.711,-61.523,-19.043
1790599674.539464,92.773,-59.082,-52.734,64.453
1790599674.543336,38.574,-62.988,-48.340,56.152
1790599674.547209,-81.055,-65.430,-62.988,-46.387
1790599674.551082,-72.754,-65.918,-63.477,-43.945
1790599674.554955,68.848,-45.410,-44.922,60.059
1790599674.558827,115.723,-57.617,-42.480,83.496
1790599674.562700,-19.531,-73.730,-55.664,5.371
1790599674.566572,-94.727,-58.594,-52.734,-35.645
1790599674.570764,6.836,-45.410,-43.457,35.156
1790599674.574637,108.398,-47.363,-50.293,97.168
1790599674.578510,-2.441,-54.688,-56.152,24.902
1790599674.582383,-94.727,-68.359,-59.570,-42.480
1790599674.586256,12.207,-79.102,-61.523,20.508
1790599674.590128,99.609,-68.848,-63.965,97.168
1790599674.594001,16.113,-70.801,-60.059,39.062
1790599674.597874,-95.215,-71.777,-51.270,-42.969
1790599674.601747,-25.391,-79.590,-55.176,-13.184
1790599674.605620,104.980,-65.430,-60.547,76.660
1790599674.609493,61.035,-48.340,-56.152,50.781
1790599674.613365,-72.754,-59.082,-55.176,-29.785
1790599674.617757,-82.031,-67.383,-61.035,-26.367
1790599674.621630,41.016,-58.105,-56.152,56.152
1790599674.625503,84.961,-60.547,-62.500,76.660
1790599674.629376,-23.438,-67.383,-73.730,-20.996
1790599674.633249,-77.637,-73.730,-74.707,-67.383
1790599674.637122,32.715,-70.801,-75.195,7.324
1790599674.640996,125.488,-57.617,-69.824,74.219
1790599674.644869,2.930,-53.223,-64.453,1.953
1790599674.648742,-108.398,-61.035,-73.730,-71.777
1790599674.652615,-30.762,-62.988,-71.777,-13.184
1790599674.656488,82.031,-63.477,-51.270,75.195
1790599674.660361,26.367,-51.270,-51.758,40.039
1790599674.664723,-81.543,-66.406,-62.500,-24.902
1790599674.668597,-55.176,-89.355,-62.500,-3.906
1790599674.672470,64.941,-66.406,-52.734,72.754
1790599674.676343,87.891,-57.129,-50.293,60.059
1790599674.680217,-52.246,-75.195,-60.059,-25.391
1790599674.684090,-102.539,-77.148,-66.406,-17.090
1790599674.687963,50.781,-54.688,-53.711,68.848
1790599674.691837,127.441,-55.176,-48.340,82.031
1790599674.695710,-6.348,-74.707,-61.523,0.977
1790599674.699584,-94.238,-79.102,-62.012,-41.504
1790599674.703457,-3.418,-80.566,-51.758,17.090
1790599674.707330,94.727,-76.660,-55.176,68.848
1790599674.711673,0.000,-56.641,-66.406,20.508
1790599674.715547,0.000,-51.758,-62.012,-31.250
1790599674.719420,0.000,-54.199,-42.480,0.977
1790599674.723294,0.000,-65.918,-46.875,73.242
1790599674.727167,0.000,-65.918,-59.082,43.457
1790599674.731041,0.000,-58.594,-63.965,-40.527
1790599674.734915,0.000,-61.035,-66.406,-34.668
1790599674.738788,0.000,-54.199,-58.105,50.781
1790599674.742662,0.000,-60.547,-59.082,63.965
1790599674.746536,0.000,-69.336,-62.012,-34.180
1790599674.750409,0.000,-72.754,-58.594,-48.828
1790599674.754283,0.000,-71.777,-66.406,46.875
1790599674.758571,121.094,-61.523,-65.430,75.195
1790599674.762445,-15.137,-49.316,-48.828,-19.043
1790599674.766319,-127.930,-51.270,-39.551,-93.750
1790599674.770192,-34.180,-64.453,-47.363,-28.320
1790599674.774066,104.492,-49.805,-44.434,57.617
1790599674.777940,14.160,-43.945,-39.062,-7.324
1790599674.781814,-145.020,-59.082,-35.645,-83.008
1790599674.785688,-93.262,-56.641,-31.250,-48.828
1790599674.789562,35.156,-35.156,-28.320,19.043
1790599674.793435,-29.785,-24.902,-15.625,-31.250
1790599674.797309,-182.129,-32.715,-20.508,-122.559
1790599674.801183,-160.156,-31.250,-34.668,-117.676
1790599674.805431,-21.973,-15.137,-25.879,-44.434
1790599674.809305,-28.809,-8.789,-13.184,-37.598
1790599674.813179,-194.824,-37.598,-24.414,-132.324
1790599674.817053,-241.211,-33.691,-35.156,-182.617
1790599674.820927,-121.094,4.883,-29.785,-107.910
1790599674.824801,-65.918,9.277,-25.879,-62.500
1790599674.828675,-173.828,-3.418,-31.250,-156.250
1790599674.832549,-258.301,-16.602,-36.621,-213.379
1790599674.836423,-199.219,-10.254,-30.762,-159.180
1790599674.840297,-88.867,-5.859,-21.973,-98.145
1790599674.844172,-166.016,-10.742,-40.039,-170.898
1790599674.848046,-280.762,-5.371,-64.453,-241.211
1790599674.852286,-214.844,-7.812,-63.965,-189.453
1790599674.856160,-57.129,-10.254,-59.570,-95.703
1790599674.860034,-87.891,-26.367,-69.336,-100.098
1790599674.863909,-225.586,-44.434,-78.613,-155.762
1790599674.867783,-181.152,-41.016,-75.195,-134.277
1790599674.871657,-46.875,-42.969,-79.102,-61.523
1790599674.875531,-2.441,-46.875,-83.984,-25.879
1790599674.879405,-111.328,-48.340,-80.566,-102.051
1790599674.883280,-163.086,-61.035,-86.914,-131.348
1790599674.887154,-42.480,-57.129,-89.355,-37.598
1790599674.891028,51.758,-63.965,-87.402,51.758
1790599674.894902,-40.527,-78.613,-88.379,-7.324
1790599674.899087,-110.352,-62.500,-85.449,-70.312
1790599674.902962,6.348,-58.594,-83.984,18.066
1790599674.906836,115.723,-75.195,-83.496,101.074
1790599674.910710,49.805,-76.660,-86.426,41.992
1790599674.914585,-54.199,-67.871,-87.402,-17.578
1790599674.918459,-20.508,-72.266,-98.633,29.785
1790599674.922333,114.258,-85.449,-106.445,113.770
1790599674.926208,107.422,-82.520,-92.285,103.027
1790599674.930082,-22.461,-78.613,-80.078,11.230
1790599674.933957,-18.066,-79.102,-86.426,18.066
1790599674.937831,113.770,-88.867,-92.773,108.887
1790599674.941705,134.277,-100.586,-88.867,128.906
1790599674.945867,8.301,-91.797,-87.402,52.734
1790599674.949742,-22.461,-89.844,-96.191,22.949
1790599674.953616,88.867,-85.449,-90.820,91.797
1790599674.957491,166.992,-81.055,-80.566,136.719
1790599674.961365,61.035,-80.078,-80.566,83.984
1790599674.965240,-36.133,-93.750,-90.332,31.250
1790599674.969114,49.316,-102.051,-87.402,57.129
1790599674.972989,169.434,-70.801,-73.242,138.672
1790599674.976863,112.793,-75.195,-81.543,108.887
1790599674.980738,-0.977,-95.215,-91.797,40.039
1790599674.984612,13.672,-90.820,-86.426,71.289
1790599674.988487,134.277,-80.566,-74.219,139.160
1790599674.992886,143.066,-72.754,-80.078,119.141
1790599674.996760,16.113,-85.938,-97.656,38.086
1790599675.000635,-28.809,-98.145,-106.445,22.949
1790599675.004510,112.793,-84.473,-93.750,104.004
1790599675.008385,204.102,-72.266,-91.797,144.043
1790599675.012259,42.480,-93.262,-99.609,59.570
1790599675.016134,-48.340,-93.262,-97.656,14.648
1790599675.020009,79.590,-83.984,-99.121,84.473
1790599675.023884,166.504,-94.727,-95.703,133.301
1790599675.027759,52.734,-83.984,-91.309,58.105
1790599675.031633,-41.016,-83.496,-92.285,6.836
1790599675.035508,3.418,-85.938,-84.961,41.504
1790599675.039852,122.559,-76.172,-75.195,117.188
1790599675.043727,105.957,-72.266,-82.031,99.121
1790599675.047602,-41.504,-73.242,-92.285,-4.883
1790599675.051477,-1.465,-80.566,-93.750,8.789
1790599675.055352,179.199,-79.102,-91.797,126.953
1790599675.059227,157.227,-80.566,-92.285,123.047
1790599675.063102,-29.297,-86.426,-80.566,5.859
1790599675.066977,-78.613,-87.402,-73.242,-31.738
1790599675.070852,57.617,-90.332,-78.613,50.781
1790599675.074727,119.141,-88.867,-89.355,99.609
1790599675.078602,-7.324,-79.102,-81.055,19.531
1790599675.082477,-77.637,-79.102,-78.613,-20.508
1790599675.086802,0.000,-82.031,0.000,29.297
1790599675.090677,0.000,-75.195,0.000,83.008
1790599675.094552,0.000,-64.941,0.000,41.016
1790599675.098428,0.000,-83.496,0.000,-17.578
1790599675.102303,0.000,-90.820,0.000,18.066
1790599675.106178,0.000,-68.848,0.000,100.586
1790599675.110053,0.000,-68.848,0.000,75.195
1790599675.113929,0.000,-84.473,0.000,-3.418
1790599675.117804,0.000,-98.633,0.000,0.488
1790599675.121679,0.000,-89.355,0.000,51.270
1790599675.125554,0.000,-72.266,0.000,73.242
1790599675.129430,0.000,-74.707,0.000,7.324
1790599675.133704,-63.965,-81.543,-91.797,-25.879
1790599675.137579,39.551,-78.613,-85.938,50.293
1790599675.141454,96.680,-76.172,-81.543,115.723
1790599675.145330,-4.395,-77.148,-78.613,23.926
1790599675.149205,-74.707,-68.848,-79.590,-32.715
1790599675.153081,7.812,-74.707,-89.844,33.203
1790599675.156956,113.770,-68.359,-88.379,85.449
1790599675.160832,51.270,-61.035,-86.914,40.527
1790599675.164707,-60.059,-72.754,-91.309,-13.184
1790599675.168583,-46.387,-64.453,-80.078,-5.859
1790599675.172458,103.027,-57.617,-67.871,75.195
1790599675.176334,104.980,-65.430,-71.777,81.543
1790599675.180581,-52.734,-72.754,-73.242,-1.465
1790599675.184457,-62.500,-68.359,-66.406,-3.418
1790599675.188333,73.242,-76.172,-69.336,76.172
1790599675.192208,118.652,-76.172,-71.289,113.281
1790599675.196084,-15.137,-55.664,-62.988,29.785
1790599675.199960,-55.664,-68.359,-66.895,-32.227
1790599675.203835,65.918,-68.848,-72.266,28.320
1790599675.207711,138.672,-63.965,-71.289,108.887
1790599675.211586,27.832,-64.941,-69.336,41.992
1790599675.215462,-62.500,-55.176,-55.664,-25.391
1790599675.219338,2.441,-53.223,-50.293,37.598
1790599675.223213,118.652,-46.875,-59.082,99.121
1790599675.227417,37.109,-48.340,-62.988,49.316
1790599675.231292,-100.586,-52.734,-56.641,-36.621
1790599675.235168,-46.875,-62.988,-54.688,-28.809
1790599675.239044,87.402,-57.617,-58.594,65.918
1790599675.242920,96.191,-51.758,-62.988,70.801
1790599675.246796,-51.270,-67.383,-72.754,-15.137
1790599675.250672,-67.871,-77.637,-80.566,-33.691
1790599675.254547,62.012,-59.570,-73.242,37.598
1790599675.258423,116.211,-46.875,-62.500,66.406
1790599675.262299,0.000,-51.270,-66.895,-2.441
1790599675.266175,-102.051,-76.172,-76.660,-22.461
1790599675.270051,-2.441,-70.312,-72.754,32.227
1790599675.274224,98.633,-46.875,-62.988,68.359
1790599675.278100,-0.977,-54.688,-71.289,15.625
1790599675.281976,-104.492,-50.293,-78.125,-45.898
1790599675.285852,-35.156,-56.152,-65.918,2.930
1790599675.289728,100.586,-67.871,-61.523,74.219
1790599675.293604,65.430,-64.941,-65.918,22.461
1790599675.297480,-91.309,-66.406,-69.336,-47.852
1790599675.301356,-100.098,-55.664,-66.406,-40.039
1790599675.305232,60.059,-51.270,-59.570,39.551
1790599675.309108,91.797,-52.246,-63.965,72.266
1790599675.312984,-39.062,-46.875,-65.430,0.977
1790599675.316860,-75.195,-54.199,-54.199,-27.832
1790599675.320990,62.012,-50.293,-45.898,61.523
1790599675.324866,127.930,-44.922,-54.688,93.262
1790599675.328742,-25.879,-45.410,-65.918,-10.254
1790599675.332618,-104.980,-47.363,-64.941,-65.918
1790599675.336494,7.324,-44.434,-60.059,-2.441
1790599675.340370,115.234,-47.363,-62.988,82.520
1790599675.344246,10.742,-49.805,-66.895,7.324
1790599675.348122,-108.398,-45.410,-65.918,-72.266
1790599675.351998,-43.945,-52.734,-62.500,0.000
1790599675.355875,112.793,-51.758,-49.805,87.891
1790599675.359751,88.867,-44.434,-47.852,48.828
1790599675.363626,-69.336,-42.969,-56.152,-12.207
1790599675.367981,-70.801,-52.246,-59.082,-24.902
1790599675.371857,80.078,-54.199,-50.293,41.992
1790599675.375734,112.793,-48.340,-49.805,74.707
1790599675.379610,-49.805,-58.105,-55.664,-19.531
1790599675.383486,-99.609,-60.059,-56.641,-52.734
1790599675.387363,20.996,-52.246,-58.594,29.297
1790599675.391239,99.121,-55.664,-51.270,86.914
1790599675.395115,-17.578,-57.129,-51.270,4.395
1790599675.398992,-114.258,-53.223,-68.359,-62.500
1790599675.402868,-10.742,-52.246,-74.219,-2.441
1790599675.406744,101.562,-44.922,-64.453,75.684
1790599675.410620,23.926,-40.527,-62.012,31.250
1790599675.414958,0.000,-41.504,-70.312,-35.156
1790599675.418834,0.000,-50.293,-66.895,2.930
1790599675.422711,0.000,-45.898,-56.641,69.824
1790599675.426587,0.000,-42.969,-52.246,43.457
1790599675.430464,0.000,-66.895,-60.547,-36.621
1790599675.434340,0.000,-73.242,-67.383,-23.438
1790599675.438217,0.000,-50.781,-53.223,61.523
1790599675.442093,0.000,-41.504,-48.828,65.918
1790599675.445970,0.000,-62.500,-66.406,-24.902
1790599675.449847,0.000,-68.848,-71.777,-56.641
1790599675.453723,0.000,-57.617,-55.664,17.090
1790599675.457600,0.000,-52.246,-48.828,73.242
1790599675.461888,11.230,-58.105,-60.059,2.930
1790599675.465765,-85.938,-66.406,-69.336,-53.711
1790599675.469641,-4.883,-53.711,-61.035,2.930
1790599675.473518,137.207,-44.922,-55.664,91.797
1790599675.477395,52.734,-48.340,-56.152,49.316
1790599675.481271,-108.398,-74.219,-58.594,-32.227
1790599675.485148,-61.523,-62.988,-62.988,-19.531
1790599675.489025,79.590,-39.551,-65.430,49.805
1790599675.492902,82.031,-49.805,-70.801,56.641
1790599675.496778,-57.617,-56.152,-71.289,-34.668
1790599675.500655,-59.082,-54.199,-66.406,-51.270
1790599675.504532,58.105,-58.105,-63.477,45.410
1790599675.508803,0.000,-60.547,-62.500,61.523
1790599675.512680,0.000,-47.363,-59.082,-20.996
1790599675.516557,0.000,-42.969,-58.105,-57.129
1790599675.520434,0.000,-50.293,-67.383,15.625
1790599675.524311,0.000,-56.152,-63.965,96.191
1790599675.528188,0.000,-56.641,-59.082,13.672
1790599675.532065,0.000,-54.199,-66.895,-80.566
1790599675.535942,0.000,-58.105,-67.383,-20.508
1790599675.539819,0.000,-56.641,-63.477,62.988
1790599675.543695,0.000,-59.082,-56.152,32.715
1790599675.547572,0.000,-62.500,-61.035,-48.340
1790599675.551449,0.000,-67.871,-81.055,-50.781
1790599675.555678,49.805,-67.871,-76.172,39.551
1790599675.559555,71.777,-65.918,-52.246,55.664
1790599675.563432,-61.035,-64.453,-54.199,-18.066
1790599675.567310,-81.055,-60.059,-63.477,-30.273
1790599675.571187,57.129,-61.523,-59.570,43.457
1790599675.575064,127.441,-60.059,-57.617,93.750
1790599675.578941,-14.648,-66.895,-63.477,34.668
1790599675.582818,-125.977,-72.266,-75.195,-36.621
1790599675.586695,-16.113,-67.871,-76.172,-8.301
1790599675.590572,81.055,-63.477,-62.988,77.148
1790599675.594449,-10.254,-65.430,-68.848,9.766
1790599675.598326,-84.473,-65.430,-67.383,-64.453
1790599675.602546,0.000,-55.176,-53.711,-19.043
1790599675.606424,0.000,-53.223,-57.617,54.688
1790599675.610301,0.000,-58.105,-66.895,54.688
1790599675.614178,0.000,-62.988,-63.477,-27.344
1790599675.618055,0.000,-62.012,-46.387,-33.203
1790599675.621933,0.000,-58.594,-42.969,71.777
1790599675.625810,0.000,-66.406,-55.176,88.379
1790599675.629687,0.000,-68.848,-58.594,-16.113
1790599675.633564,0.000,-61.035,-52.734,-55.664
1790599675.637441,0.000,-52.734,-45.410,32.227
1790599675.641319,0.000,-62.988,-47.363,104.980
1790599675.645196,0.000,-78.613,-60.547,12.207
1790599675.649586,-119.629,-62.012,-58.105,-67.383
1790599675.653464,-17.090,-53.223,-57.129,0.000
1790599675.657341,83.984,-56.641,-56.641,78.613
1790599675.661219,40.039,-57.617,-47.363,35.645
1790599675.665096,-93.750,-58.594,-58.105,-45.898
1790599675.668974,-76.172,-58.105,-67.871,-25.879
1790599675.672851,62.500,-67.383,-61.035,83.984
1790599675.676729,51.270,-61.035,-58.105,72.754
1790599675.680606,-77.148,-41.016,-53.223,-28.809
1790599675.684484,-76.660,-50.293,-59.082,-48.340
1790599675.688361,56.641,-52.734,-60.547,30.762
1790599675.692239,69.824,-54.199,-55.176,63.477
1790599675.696375,-57.617,-57.129,-57.617,-1.465
1790599675.700252,-95.215,-55.664,-58.105,-32.227
1790599675.704130,28.809,-51.758,-54.688,42.969
1790599675.708008,116.699,-45.410,-54.688,103.027
1790599675.711885,9.766,-57.129,-58.105,17.090
1790599675.715763,-82.520,-59.570,-64.941,-35.645
1790599675.719640,6.836,-48.340,-64.941,17.090
1790599675.723518,117.188,-43.457,-56.641,66.406
1790599675.727396,51.270,-42.969,-54.199,24.902
1790599675.731273,-30.762,-57.617,-72.754,-20.996
1790599675.735151,-29.297,-61.523,-81.543,-7.812
1790599675.739028,51.270,-42.480,-61.035,48.828
1790599675.743346,64.941,-42.480,-56.152,66.406
1790599675.747224,-48.828,-49.805,-65.430,-24.414
1790599675.751102,-71.289,-45.898,-72.266,-43.945
1790599675.754979,46.387,-34.180,-68.359,43.945
1790599675.758857,94.238,-36.621,-59.570,100.098
1790599675.762735,-28.809,-42.969,-66.406,17.090
1790599675.766613,-72.754,-62.500,-79.102,-56.641
1790599675.770491,37.598,-65.918,-73.242,-5.859
1790599675.774369,108.887,-54.199,-72.266,79.590
1790599675.778246,2.930,-60.059,-77.637,25.391
1790599675.782124,-110.840,-64.453,-80.566,-71.777
1790599675.786002,-54.688,-66.895,-83.984,-28.320
1790599675.790367,0.000,-62.988,-84.961,73.242
1790599675.794245,0.000,-56.641,-86.426,41.992
1790599675.798123,0.000,-57.617,-82.520,-40.039
1790599675.802001,0.000,-61.523,-82.520,-18.066
1790599675.805879,0.000,-63.477,-85.449,50.781
1790599675.809757,0.000,-64.941,-92.773,51.758
1790599675.813636,0.000,-63.477,-89.355,-44.922
1790599675.817513,0.000,-63.477,-82.520,-67.871
1790599675.821392,0.000,-63.965,-90.820,36.621
1790599675.825270,0.000,-56.152,-94.727,84.473
1790599675.829148,0.000,-44.434,-85.938,-26.367
1790599675.833026,0.000,-58.594,-94.727,-78.125
1790599675.837306,-8.789,-63.965,-97.168,15.137
1790599675.841184,92.773,-58.594,-81.055,86.914
1790599675.845062,3.906,-56.152,-79.102,4.395
1790599675.848941,-73.730,-52.246,-88.867,-60.059
1790599675.852819,-10.742,-68.848,-87.891,-4.883
1790599675.856697,59.570,-69.336,-91.309,65.430
1790599675.860575,25.391,-50.781,-104.492,45.410
1790599675.864453,-83.008,-57.617,-100.586,-29.297
1790599675.868332,-72.266,-66.895,-88.867,-20.996
1790599675.872210,41.504,-60.547,-79.590,51.270
1790599675.876088,53.711,-57.129,-71.777,45.410
1790599675.879966,-70.801,-73.242,-81.543,-34.180
1790599675.884213,0.000,-72.754,-85.449,-69.336
1790599675.888091,0.000,-58.594,-78.613,11.230
1790599675.891970,0.000,-58.105,-74.219,79.102
1790599675.895848,0.000,-60.547,-73.730,4.883
1790599675.899726,0.000,-63.477,-80.078,-50.293
1790599675.903605,0.000,-63.965,-83.496,8.789
1790599675.907483,0.000,-56.641,-75.195,74.219
1790599675.911361,0.000,-62.012,-69.336,43.945
1790599675.915240,0.000,-67.871,-78.125,-24.902
1790599675.919118,0.000,-58.105,-74.219,-31.250
1790599675.922997,0.000,-57.129,-71.289,59.082
1790599675.926875,0.000,-56.641,-79.102,53.711
1790599675.931059,-99.609,-57.129,-81.543,-41.016
1790599675.934937,-96.680,-53.711,-77.148,-41.504
1790599675.938816,57.129,-51.758,-77.148,60.547
1790599675.942694,97.168,-52.734,-79.102,76.660
1790599675.946573,-32.227,-53.223,-79.102,-9.766
1790599675.950451,-84.473,-48.340,-82.031,-26.855
1790599675.954330,29.297,-56.641,-84.961,22.949
1790599675.958208,94.238,-81.055,-98.633,75.684
1790599675.962087,-40.527,-66.895,-92.285,-0.488
1790599675.965965,-106.934,-41.992,-76.172,-60.059
1790599675.969844,12.207,-45.410,-76.172,22.461
1790599675.973722,123.047,-47.363,-74.219,97.168
1790599675.977889,35.156,-46.875,-69.824,40.039
1790599675.981768,-117.188,-39.062,-63.477,-39.551
1790599675.985646,-76.172,-49.805,-57.129,-5.859
1790599675.989525,78.125,-61.523,-55.664,75.195
1790599675.993404,72.266,-57.617,-54.688,60.059
1790599675.997282,-72.266,-62.012,-63.965,-10.742
1790599676.001161,-85.938,-82.031,-75.684,-20.996
1790599676.005039,43.945,-67.383,-65.918,49.805
1790599676.008918,109.863,-42.969,-57.129,95.215
1790599676.012797,-9.277,-65.918,-52.246,20.508
1790599676.016675,-74.219,-75.684,-62.500,-5.859
1790599676.020554,33.691,-46.875,-65.918,47.363
1790599676.024703,0.000,-35.156,-50.781,66.895
1790599676.028582,0.000,-51.758,-60.059,13.672
1790599676.032460,0.000,-56.641,-65.430,-37.598
1790599676.036339,0.000,-52.246,-61.523,-1.953
1790599676.040218,0.000,-59.570,-66.895,65.430
1790599676.044097,0.000,-67.871,-67.383,35.645
1790599676.047976,0.000,-72.266,-77.148,-23.438
1790599676.051854,0.000,-77.637,-78.613,-15.625
1790599676.055733,0.000,-67.383,-58.105,63.965
1790599676.059612,0.000,-58.105,-57.617,75.684
1790599676.063491,0.000,-71.289,-64.941,-11.719
1790599676.067369,0.000,-76.660,-66.406,-31.738
1790599676.071469,60.547,-60.059,-63.477,15.625
1790599676.075348,110.840,-66.895,-54.199,60.059
1790599676.079227,-43.945,-71.777,-60.059,-5.859
1790599676.083106,-138.184,-55.176,-67.383,-70.801
1790599676.086985,-29.297,-43.457,-71.289,-7.324
1790599676.090863,81.055,-66.406,-79.590,61.035
1790599676.094742,-14.648,-68.848,-78.125,-9.766
1790599676.098621,-114.746,-44.922,-70.801,-79.102
1790599676.102500,-43.457,-50.293,-66.895,-26.367
1790599676.106379,93.262,-62.988,-67.871,63.965
1790599676.110258,78.613,-58.594,-70.312,35.156
1790599676.114137,-59.570,-45.898,-67.871,-62.012
1790599676.118450,0.000,-58.105,-65.918,-51.270
1790599676.122329,0.000,-60.059,-61.523,56.152
1790599676.126208,0.000,-45.898,-60.059,75.195
1790599676.130087,0.000,-56.152,-62.012,-20.020
1790599676.133966,0.000,-64.941,-64.453,-40.039
1790599676.137845,0.000,-59.570,-66.895,28.809
1790599676.141724,0.000,-57.617,-59.082,77.148
1790599676.145603,0.000,-46.387,-52.246,10.254
1790599676.149482,0.000,-45.898,-51.270,-48.340
1790599676.153361,0.000,-47.852,-50.293,17.578
1790599676.157240,0.000,-44.922,-42.480,83.496
1790599676.161119,0.000,-60.059,-50.293,28.320
1790599676.165407,-114.746,-60.059,-62.500,-36.621
1790599676.169286,-20.508,-65.430,-47.363,1.953
1790599676.173165,125.977,-60.547,-33.691,70.312
1790599676.177045,75.684,-40.039,-36.133,41.504
1790599676.180924,-72.266,-44.922,-42.969,-26.367
1790599676.184803,-57.129,-52.246,-47.363,-8.789
1790599676.188682,60.547,-47.852,-43.945,69.824
1790599676.192562,82.520,-45.410,-38.086,79.590
1790599676.196441,-33.203,-62.988,-46.875,-15.137
1790599676.200320,-83.984,-70.312,-59.082,-55.176
1790599676.204199,12.207,-53.711,-54.688,0.000
1790599676.208079,98.633,-50.293,-48.828,61.523
1790599676.212350,-16.602,-53.223,-54.688,3.418
1790599676.216229,-91.309,-61.035,-62.500,-45.898
1790599676.220109,6.836,-62.012,-58.105,15.137
1790599676.223988,134.766,-57.617,-52.246,88.867
1790599676.227868,83.008,-55.664,-58.105,32.715
1790599676.231747,-87.891,-49.805,-63.965,-41.504
1790599676.235626,-75.684,-48.340,-61.035,-16.113
1790599676.239506,75.195,-58.594,-66.895,71.289
1790599676.243385,42.480,-60.059,-78.125,67.871
1790599676.247265,-100.586,-53.223,-76.172,-33.691
1790599676.251144,-90.332,-52.246,-68.848,-56.152
1790599676.255023,54.199,-54.199,-62.012,41.016
1790599676.259270,114.258,-49.316,-60.547,73.242
1790599676.263150,-10.742,-42.480,-62.012,-4.883
1790599676.267029,-82.031,-45.410,-60.059,-11.719
1790599676.270909,61.523,-46.387,-56.641,63.477
1790599676.274788,177.734,-68.359,-59.082,98.145
1790599676.278668,25.391,-70.312,-66.895,26.367
1790599676.282547,-85.938,-56.152,-70.312,-28.320
1790599676.286427,-11.719,-70.312,-64.941,20.508
1790599676.290307,92.773,-66.895,-55.176,86.914
1790599676.294186,12.207,-58.105,-53.711,19.043
1790599676.298066,-116.699,-62.012,-67.383,-66.895
1790599676.301945,-71.289,-69.336,-74.707,-34.668
1790599676.306151,77.148,-68.359,-63.965,61.523
1790599676.310030,85.449,-51.270,-65.430,65.918
1790599676.313910,-79.590,-50.293,-75.195,-31.738
1790599676.317790,-109.375,-57.129,-76.172,-58.594
1790599676.321670,41.016,-62.988,-62.500,38.086
1790599676.325549,111.328,-66.895,-57.617,85.449
1790599676.329429,-27.832,-65.918,-59.570,-5.859
1790599676.333309,-122.559,-79.590,-61.523,-49.805
1790599676.337188,-20.508,-74.219,-57.129,20.508
1790599676.341068,97.656,-51.758,-45.898,98.145
1790599676.344948,20.996,-59.570,-48.828,21.973
1790599676.348828,-85.938,-74.707,-61.523,-61.035
1790599676.352978,-29.297,-69.336,-57.129,6.836
1790599676.356858,93.262,-54.688,-44.434,96.680
1790599676.360738,49.316,-55.664,-52.246,69.824
1790599676.364617,-88.379,-70.312,-56.152,-21.973
1790599676.368497,-55.176,-76.172,-54.688,-32.715
1790599676.372377,124.023,-77.148,-51.758,63.965
1790599676.376257,127.441,-64.941,-46.875,103.516
1790599676.380137,-67.383,-47.852,-49.316,-0.977
1790599676.384017,-123.047,-53.711,-48.828,-48.828
1790599676.387897,35.645,-58.594,-45.410,46.875
1790599676.391776,119.629,-64.941,-52.734,99.609
1790599676.395656,-5.371,-72.754,-60.547,26.367
1790599676.399778,-56.641,-52.246,-59.570,-26.367
1790599676.403657,5.371,-48.828,-49.805,20.996
1790599676.407537,63.965,-62.500,-45.410,82.520
1790599676.411417,-5.371,-65.430,-47.363,22.461
1790599676.415297,-119.141,-69.824,-50.781,-41.016
1790599676.419177,-62.012,-65.918,-54.199,9.766
1790599676.423057,101.074,-74.707,-62.988,103.516
1790599676.426937,64.941,-69.824,-72.266,75.684
1790599676.430817,-87.402,-63.477,-67.383,-37.598
1790599676.434697,-76.660,-64.453,-70.801,-51.758
1790599676.438577,57.617,-64.941,-74.707,32.715
1790599676.442457,90.332,-72.266,-66.406,58.594
1790599676.446561,-66.895,-68.359,-64.453,-26.855
1790599676.450441,-111.328,-61.523,-71.777,-38.574
1790599676.454321,37.109,-55.176,-71.777,45.410
1790599676.458201,102.051,-52.734,-61.035,75.195
1790599676.462081,-6.348,-57.129,-59.570,-2.441
1790599676.465961,-75.195,-74.219,-73.242,-41.504
1790599676.469841,-5.859,-77.637,-75.195,34.668
1790599676.473722,107.422,-58.105,-62.012,103.516
1790599676.477602,40.039,-57.617,-61.035,28.809
1790599676.481482,-86.426,-74.219,-74.219,-64.453
1790599676.485362,-45.898,-77.148,-69.824,-42.480
1790599676.489242,76.660,-61.523,-62.988,55.664
1790599676.493535,45.410,-73.730,-65.430,61.523
1790599676.497415,-95.215,-88.379,-73.242,-24.414
1790599676.501295,-89.355,-77.637,-76.660,-43.457
1790599676.505175,64.941,-63.477,-62.500,39.062
1790599676.509056,97.656,-56.641,-56.152,80.566
1790599676.512936,-39.551,-67.871,-65.918,-10.742
1790599676.516816,-86.426,-71.289,-69.336,-58.105
1790599676.520696,29.785,-65.430,-60.547,23.926
1790599676.524576,114.258,-62.500,-64.453,81.543
1790599676.528457,-10.254,-58.594,-75.195,3.418
1790599676.532337,-101.562,-55.176,-70.312,-54.688
1790599676.536217,-19.043,-53.711,-64.453,-9.766
1790599676.540497,0.000,-55.664,-66.406,76.172
1790599676.544378,0.000,-53.223,-69.824,36.621
1790599676.548258,0.000,-50.781,-69.336,-54.688
1790599676.552138,0.000,-57.129,-69.824,-39.551
1790599676.556019,0.000,-69.336,-79.102,40.039
1790599676.559899,0.000,-61.035,-83.008,38.086
1790599676.563780,0.000,-53.711,-81.055,-47.852
1790599676.567660,0.000,-58.105,-81.543,-44.922
1790599676.571540,0.000,-78.125,-86.914,64.453
1790599676.575421,0.000,-74.219,-83.984,88.867
1790599676.579301,0.000,-57.129,-78.613,-23.438
1790599676.583181,0.000,-57.129,-83.008,-61.523
1790599676.587447,19.043,-56.641,-73.730,-1.465
1790599676.591328,128.906,-61.523,-62.500,71.777
1790599676.595208,17.578,-54.199,-64.941,21.973
1790599676.599089,-120.117,-47.852,-79.102,-61.523
1790599676.602970,-40.039,-46.387,-85.938,-10.254
1790599676.606850,125.000,-45.410,-83.008,86.426
1790599676.610731,46.875,-57.129,-86.426,41.016
1790599676.614611,-98.145,-60.059,-86.914,-48.340
1790599676.618492,-48.828,-53.711,-83.984,-8.301
1790599676.622372,75.195,-47.363,-74.219,80.078
1790599676.626253,68.848,-44.922,-68.359,86.914
1790599676.630133,-59.570,-53.223,-74.707,5.859
1790599676.634366,0.000,-52.734,-74.219,-25.879
1790599676.638246,0.000,-41.504,-70.312,31.738
1790599676.642127,0.000,-24.902,-66.406,56.641
1790599676.646008,0.000,-31.250,-79.102,-18.066
1790599676.649889,0.000,-56.152,-85.449,-68.848
1790599676.653769,0.000,-46.875,-84.961,8.301
1790599676.657650,0.000,-27.344,-86.914,80.078
1790599676.661530,0.000,-55.664,-96.191,16.602
1790599676.665411,0.000,-67.871,-104.004,-62.500
1790599676.669292,0.000,-39.551,-92.285,-38.086
1790599676.673172,0.000,-36.621,-86.426,65.918
1790599676.677053,0.000,-42.969,-90.332,52.734
1790599676.681245,-96.191,-65.430,-94.727,-52.246
1790599676.685126,-82.031,-74.219,-97.168,-49.805
1790599676.689006,81.543,-37.109,-94.727,45.410
1790599676.692887,129.883,-36.133,-83.496,75.684
1790599676.696768,-28.320,-49.316,-85.449,-5.859
1790599676.700649,-92.285,-45.410,-92.773,-61.523
1790599676.704530,29.785,-49.805,-82.031,18.555
1790599676.708410,120.117,-47.363,-83.496,87.402
1790599676.712291,6.348,-56.152,-82.520,-5.859
1790599676.716172,-99.121,-54.688,-74.219,-65.918
1790599676.720053,8.301,-34.668,-82.520,14.160
1790599676.723934,140.625,-34.668,-83.984,86.426
1790599676.728091,52.246,-43.945,-82.520,15.625
1790599676.731972,-60.059,-54.688,-84.961,-63.477
1790599676.735853,-23.438,-50.293,-96.191,-19.531
1790599676.739734,93.750,-38.086,-93.262,74.707
1790599676.743615,80.078,-41.992,-82.520,62.988
1790599676.747496,-63.477,-55.176,-87.891,-23.926
1790599676.751377,-71.777,-50.293,-89.844,-33.203
1790599676.755258,55.176,-46.387,-84.961,35.156
1790599676.759139,85.938,-43.945,-87.891,53.223
1790599676.763020,-43.457,-49.805,-88.379,-32.227
1790599676.766901,-93.262,-65.430,-91.309,-52.246
1790599676.770781,42.480,-61.523,-91.797,44.434
1790599676.774924,0.000,-60.547,-85.938,79.590
1790599676.778805,0.000,-71.289,-94.238,1.953
1790599676.782686,0.000,-55.176,-97.656,-60.059
1790599676.786567,0.000,-75.684,-86.426,-16.113
1790599676.790448,0.000,-108.887,-70.312,95.215
1790599676.794329,0.000,-73.730,-79.590,89.355
1790599676.798210,0.000,-35.156,-104.492,13.184
1790599676.802091,0.000,-47.363,-107.910,-19.531
1790599676.805972,0.000,-40.527,-101.074,35.156
1790599676.809853,0.000,-19.531,-104.004,33.203
1790599676.813734,0.000,-45.410,-111.328,-63.965
1790599676.817615,0.000,-46.387,-120.605,-72.754
1790599676.821718,28.809,-18.555,-120.605,6.836
1790599676.825599,92.285,-19.531,-128.418,40.039
1790599676.829481,-29.785,-28.809,-135.254,-48.828
1790599676.833362,-84.473,-22.461,-126.953,-91.309
1790599676.837243,39.551,-16.113,-123.047,-14.648
1790599676.841124,124.512,-25.879,-124.512,46.387
1790599676.845005,21.484,-30.273,-125.488,-17.090
1790599676.848886,-73.242,-24.902,-117.676,-85.938
1790599676.852767,-18.555,-20.508,-106.934,-25.391
1790599676.856648,121.094,-34.180,-113.770,88.379
1790599676.860530,57.129,-41.016,-109.863,46.387
1790599676.864411,-92.773,-37.109,-96.680,-71.289
1790599676.868680,-39.062,-43.457,-98.145,-48.340
1790599676.872561,95.703,-43.945,-92.285,49.805
1790599676.876442,86.914,-46.875,-82.031,59.570
1790599676.880324,-52.246,-42.480,-79.590,-27.344
1790599676.884205,-77.637,-41.016,-83.008,-48.340
1790599676.888086,62.988,-49.316,-86.914,44.922
1790599676.891968,137.207,-42.969,-83.008,90.332
1790599676.895849,-1.953,-37.598,-81.055,6.836
1790599676.899730,-72.266,-42.969,-79.590,-30.273
