timestamp,TP9,AF7,AF8,TP10
1790603613.730115,0.000,0.000,0.000,0.000
1790603613.733974,0.000,0.000,-0.488,0.000
1790603613.737834,0.000,-3.418,-1.465,-1.953
1790603613.741693,0.000,6.836,0.977,4.395
1790603613.745553,0.000,-36.621,-15.137,-22.949
1790603613.749413,0.000,-102.051,-73.242,-57.617
1790603613.753272,0.000,-89.355,-106.445,-41.504
1790603613.757132,0.000,-80.566,-86.426,-33.203
1790603613.760991,0.000,-87.402,-80.566,-59.570
1790603613.764851,0.000,-79.590,-90.820,-46.387
1790603613.768710,0.000,-74.219,-94.727,-12.207
1790603613.772570,0.000,-78.125,-86.426,-18.555
1790603613.775530,-85.449,-73.730,-78.613,-24.902
1790603613.779314,-112.793,-65.918,-75.684,-38.574
1790603613.783099,14.648,-52.734,-67.871,-17.578
1790603613.786883,69.824,-54.199,-62.988,1.953
1790603613.790668,-33.691,-58.105,-61.035,-6.836
1790603613.794453,-87.402,-54.199,-62.500,-20.996
1790603613.798237,-1.465,-48.828,-56.641,5.859
1790603613.802022,70.801,-50.293,-48.828,19.043
1790603613.805806,-5.371,-48.828,-58.105,15.137
1790603613.809591,-79.590,-44.922,-57.617,-1.465
1790603613.813375,-40.039,-46.875,-55.176,-12.207
1790603613.817160,51.270,-54.688,-67.871,-4.395
1790603613.819331,40.039,-44.434,-58.594,-6.836
1790603613.823048,-55.664,-39.062,-50.781,-15.625
1790603613.826765,-66.895,-56.152,-67.383,-19.531
1790603613.830482,34.668,-59.082,-73.730,-9.766
1790603613.834200,52.246,-59.570,-62.988,12.207
1790603613.837917,-54.199,-52.734,-69.336,-1.953
1790603613.841635,-73.730,-36.133,-70.801,-26.855
1790603613.845352,26.855,-39.551,-59.082,2.441
1790603613.849069,74.707,-54.199,-60.547,22.461
1790603613.852787,-24.414,-64.453,-77.637,-18.555
1790603613.856504,-108.398,-57.617,-79.102,-47.363
1790603613.860221,-28.809,-45.410,-53.223,-19.531
1790603613.859973,0.000,-51.270,-54.688,2.441
1790603613.863580,0.000,-58.105,-77.148,-17.090
1790603613.867188,0.000,-48.340,-76.172,-48.340
1790603613.870795,0.000,-43.457,-60.547,-37.109
1790603613.874402,0.000,-56.641,-68.359,-26.367
1790603613.878009,0.000,-54.199,-93.750,-44.922
1790603613.881616,0.000,-51.270,-83.008,-31.250
1790603613.885223,0.000,-50.781,-76.172,-23.926
1790603613.888831,0.000,-38.574,-71.777,-17.090
1790603613.892438,0.000,-50.293,-62.988,-0.488
1790603613.896045,0.000,-51.758,-62.988,-2.930
1790603613.899652,0.000,-37.109,-56.641,-18.555
1790603613.900710,13.672,-49.805,-75.684,-10.742
1790603613.904264,63.965,-56.152,-72.266,-6.348
1790603613.907818,-10.742,-48.340,-61.035,-19.531
1790603613.911372,-88.379,-40.527,-64.941,-57.129
1790603613.914926,-33.691,-37.598,-48.828,-18.555
1790603613.918480,69.824,-43.457,-41.992,31.250
1790603613.922034,22.949,-47.852,-47.363,0.488
1790603613.925588,-76.660,-41.504,-44.434,-23.926
1790603613.929142,-49.316,-30.762,-37.598,-19.043
1790603613.932697,55.176,-35.645,-49.805,20.508
1790603613.936251,50.781,-46.387,-62.012,5.371
1790603613.939805,-59.082,-41.016,-47.363,-25.391
1790603613.940731,-74.219,-27.832,0.000,-22.949
1790603613.944241,26.855,-21.973,0.000,3.906
1790603613.947751,59.082,-40.527,0.000,18.066
1790603613.951262,-32.715,-58.105,0.000,-17.578
1790603613.954772,-83.984,-55.664,0.000,-31.250
1790603613.958282,2.441,-51.758,0.000,5.371
1790603613.961792,69.824,-54.688,0.000,8.301
1790603613.965302,-21.484,-54.199,0.000,-6.348
1790603613.968813,-103.516,-48.340,0.000,-19.531
1790603613.972323,-38.086,-50.293,0.000,-15.625
1790603613.975833,77.637,-42.480,0.000,18.066
1790603613.979344,40.039,-36.621,0.000,8.301
1790603613.982973,0.000,-60.547,-48.828,-33.203
1790603613.986485,0.000,-64.941,-49.316,-35.645
1790603613.989996,0.000,-52.734,-56.641,-8.301
1790603613.993508,0.000,-54.688,-53.223,-11.230
1790603613.997020,0.000,-44.922,-51.758,-14.648
1790603614.000532,0.000,-49.805,-59.082,-6.348
1790603614.004044,0.000,-45.898,-42.969,10.742
1790603614.007556,0.000,-45.898,-44.922,12.695
1790603614.011068,0.000,-51.758,-72.266,-34.180
1790603614.014580,0.000,-43.457,-64.453,-27.832
1790603614.018092,0.000,-39.062,-47.363,1.465
1790603614.021604,0.000,-42.480,-45.898,12.695
1790603614.024411,18.555,-43.457,-36.621,10.742
1790603614.027915,-68.848,-35.645,-40.039,-0.977
1790603614.031419,-42.969,-32.227,-63.477,-15.625
1790603614.034922,53.711,-38.574,-64.941,-11.719
1790603614.038426,31.738,-44.434,-61.035,-21.484
1790603614.041929,-67.871,-41.992,-59.082,-20.508
1790603614.045433,-66.895,-40.039,-58.105,-6.348
1790603614.048936,37.598,-46.875,-64.941,-1.465
1790603614.052440,79.590,-43.457,-52.246,18.066
1790603614.055943,-33.691,-44.922,-50.781,-20.508
1790603614.059447,-83.496,-41.504,-53.223,-22.949
1790603614.062950,26.855,-23.926,-27.832,14.648
1790603614.065984,77.148,-41.992,-47.363,4.883
1790603614.069482,-20.996,-56.152,-83.984,-38.086
1790603614.072981,-80.078,-41.016,-65.918,-23.438
1790603614.076479,-13.672,-39.062,-47.852,16.113
1790603614.079978,70.312,-44.434,-48.828,25.391
1790603614.083477,22.461,-43.457,-54.199,1.465
1790603614.086975,-62.988,-28.320,-44.922,-15.137
1790603614.090474,-30.273,-25.391,-40.039,20.020
1790603614.093973,69.824,-24.414,-49.805,15.137
1790603614.097471,61.035,-6.348,-45.410,15.137
1790603614.100970,-48.828,-22.949,-41.504,26.367
1790603614.104469,-44.922,-30.762,-36.133,6.836
1790603614.110938,61.523,-15.137,-28.320,32.715
1790603614.114464,86.426,-19.043,-26.367,60.059
1790603614.117990,-9.277,-19.531,-28.320,13.184
1790603614.121516,-50.293,-11.230,-30.273,-20.020
1790603614.125043,42.969,-8.789,-4.395,42.969
1790603614.128569,113.281,-5.371,-9.766,73.730
1790603614.132095,29.785,5.371,-29.785,29.785
1790603614.135621,-52.734,4.395,-39.062,-4.395
1790603614.139147,-1.465,-11.230,-33.691,33.203
1790603614.142673,96.680,-10.742,-21.973,58.105
1790603614.146199,39.551,-18.066,-45.410,5.859
1790603614.149726,-71.289,-28.809,-45.410,-1.465
1790603614.153858,-52.734,-26.855,-34.668,-9.277
1790603614.157390,43.945,-25.879,-48.828,3.906
1790603614.160921,56.641,-24.902,-46.875,23.926
1790603614.164452,-40.039,-20.996,-31.738,3.418
1790603614.167983,-66.406,-20.020,-34.668,2.441
1790603614.171514,33.203,-20.508,-34.180,22.949
1790603614.175045,90.332,-27.832,-37.598,19.531
1790603614.178577,-11.719,-36.621,-42.480,-20.020
1790603614.182108,-96.680,-35.645,-49.805,-31.738
1790603614.185639,-27.832,-41.992,-56.641,-27.832
1790603614.189170,61.523,-43.945,-43.945,13.184
1790603614.192702,-14.648,-42.969,-40.527,20.020
1790603614.198543,-104.492,-40.039,-46.387,-15.137
1790603614.202091,-45.410,-33.691,-54.199,-18.555
1790603614.205640,59.570,-48.340,-63.965,19.531
1790603614.209189,18.555,-59.570,-72.266,9.277
1790603614.212738,-95.703,-57.129,-65.918,-44.434
1790603614.216286,-86.426,-62.988,-52.734,-26.367
1790603614.219835,20.996,-63.965,-54.199,-7.812
1790603614.223383,47.852,-63.965,-62.500,-27.344
1790603614.226932,-59.570,-60.547,-50.293,-36.133
1790603614.230481,-108.398,-56.641,-54.199,-41.016
1790603614.234030,-2.441,-54.199,-80.078,-13.184
1790603614.237578,59.570,-71.289,-97.168,-2.930
1790603614.243485,-31.250,-70.801,-95.215,-13.184
1790603614.247051,-99.121,-53.711,-80.566,-24.414
1790603614.250616,-34.180,-58.105,-72.266,-31.250
1790603614.254181,50.293,-67.871,-62.500,-10.254
1790603614.257746,-12.207,-73.242,-62.012,-19.043
1790603614.261311,-93.262,-61.035,-63.477,-29.297
1790603614.264876,-57.129,-49.316,-62.500,-42.969
1790603614.268441,44.434,-63.477,-64.453,0.488
1790603614.272006,39.551,-68.848,-61.035,38.086
1790603614.275571,-67.871,-60.059,-65.918,0.488
1790603614.279136,-81.055,-64.453,-78.125,-34.180
1790603614.282701,36.621,-61.523,-72.266,-3.418
1790603614.288586,71.777,-52.246,-62.500,15.625
1790603614.292166,-33.691,-47.363,-50.781,-13.184
1790603614.295746,-79.102,-54.199,-40.527,-35.156
1790603614.299326,20.020,-54.199,-61.523,-45.898
1790603614.302906,73.730,-54.199,-78.125,-9.766
1790603614.306486,-31.738,-60.059,-75.195,-8.789
1790603614.310066,-92.285,-60.059,-80.566,-28.809
1790603614.313646,-33.691,-61.523,-84.473,-16.113
1790603614.317226,76.660,-50.293,-69.336,26.367
1790603614.320806,31.738,-42.969,-56.152,24.414
1790603614.324386,-93.262,-55.176,-67.383,-22.461
1790603614.327966,-61.035,-58.105,-67.383,-36.621
1790603614.333783,0.000,-58.594,-61.035,-12.695
1790603614.337376,0.000,-64.453,-62.500,-4.395
1790603614.340970,0.000,-69.824,-72.754,-48.340
1790603614.344563,0.000,-63.477,-71.777,-40.527
1790603614.348156,0.000,-52.734,-60.059,12.695
1790603614.351749,0.000,-44.434,-37.109,22.461
1790603614.355343,0.000,-41.016,-38.574,-2.930
1790603614.358936,0.000,-50.781,-57.129,-28.320
1790603614.362529,0.000,-43.945,-52.246,-21.973
1790603614.366122,0.000,-39.551,-61.035,-0.977
1790603614.369716,0.000,-51.758,-53.711,-2.930
1790603614.373309,0.000,-47.363,-42.480,-12.695
1790603614.378864,-20.020,-40.527,-49.316,9.766
1790603614.382468,73.242,-35.645,-45.898,19.043
1790603614.386072,28.809,-34.668,-40.039,0.488
1790603614.389677,-80.078,-31.250,-40.527,-11.719
1790603614.393281,-58.594,-30.273,-44.434,-18.066
1790603614.396885,36.621,-50.781,-54.199,-11.230
1790603614.400489,36.621,-62.988,-68.848,-23.438
1790603614.404093,-53.223,-55.664,-60.059,-20.020
1790603614.407697,-78.125,-51.758,-45.410,-23.438
1790603614.411302,4.395,-59.570,-72.754,-26.855
1790603614.414906,51.270,-53.223,-86.914,3.418
1790603614.418510,-27.344,-45.410,-72.266,-6.348
1790603614.424074,-83.984,-48.340,-70.801,-20.020
1790603614.427688,-7.812,-48.828,-56.641,-2.441
1790603614.431302,70.312,-42.969,-56.152,-9.277
1790603614.434917,5.859,-42.480,-70.801,-42.480
1790603614.438531,-79.102,-48.828,-62.988,-27.344
1790603614.442146,-40.527,-47.363,-49.316,-15.137
1790603614.445760,58.105,-51.270,-49.316,16.113
1790603614.449374,35.645,-54.688,-54.199,40.039
1790603614.452989,-86.426,-51.758,-70.312,4.395
1790603614.456603,-89.355,-55.176,-80.566,-21.484
1790603614.460217,28.809,-57.129,-66.895,-4.883
1790603614.463832,50.293,-63.477,-59.082,22.461
1790603614.469177,-44.434,-56.641,-45.410,0.000
1790603614.472800,-69.336,-43.945,-29.297,-18.066
1790603614.476423,9.766,-48.828,-57.617,-3.906
1790603614.480045,45.410,-65.918,-83.496,18.555
1790603614.483668,-33.203,-66.406,-69.336,-0.488
1790603614.487291,-82.520,-50.781,-67.871,-38.574
1790603614.490914,-8.789,-41.992,-52.246,-3.418
1790603614.494537,92.285,-42.969,-46.387,16.113
1790603614.498160,28.320,-47.363,-62.988,-20.996
1790603614.501782,-70.801,-47.852,-58.594,-19.043
1790603614.505405,-46.387,-53.223,-57.129,10.254
1790603614.509028,42.969,-45.898,-54.688,27.344
1790603614.514305,25.879,-37.598,-60.547,16.113
1790603614.517935,-80.566,-56.152,-58.594,-20.508
1790603614.521566,-84.961,-59.082,-48.828,-25.391
1790603614.525196,26.367,-52.734,-50.781,6.836
1790603614.528827,77.148,-41.992,-19.531,37.598
1790603614.532457,-29.297,-37.598,-17.090,7.812
1790603614.536088,-87.891,-50.781,-56.641,-2.930
1790603614.539718,-8.789,-50.781,-66.895,0.488
1790603614.543349,58.594,-48.828,-57.617,0.488
1790603614.546979,-13.184,-47.852,-44.922,-10.742
1790603614.550610,-90.332,-49.316,-50.781,-38.574
1790603614.554240,-33.203,-53.223,-65.430,-19.043
1790603614.561003,69.336,-49.805,-70.312,12.207
1790603614.564647,32.715,-41.504,-58.105,12.207
1790603614.568292,-58.105,-35.156,-41.504,1.465
1790603614.571936,-41.992,-37.109,-51.758,-10.254
1790603614.575580,44.434,-43.457,-61.035,-15.625
1790603614.579225,47.852,-47.363,-43.457,3.418
1790603614.582869,-53.711,-62.988,-57.617,-25.391
1790603614.586513,-83.984,-60.059,-79.590,-43.945
1790603614.590157,12.695,-50.293,-64.453,21.973
1790603614.593801,68.848,-52.246,-57.129,20.020
1790603614.597446,-30.273,-54.688,-56.641,-22.949
1790603614.601090,-83.008,-51.758,-42.480,-7.324
1790603614.607483,20.020,-19.531,-26.367,18.066
1790603614.611139,75.195,-22.461,-54.688,11.719
1790603614.614794,-22.949,-60.059,-85.938,-39.551
1790603614.618450,-88.379,-58.105,-67.383,-46.875
1790603614.622106,-24.414,-44.922,-43.945,-15.137
1790603614.625762,79.590,-33.203,-43.457,10.742
1790603614.629417,44.922,-33.203,-54.199,-7.324
1790603614.633073,-73.730,-38.574,-58.105,-41.992
1790603614.636729,-74.707,-37.109,-57.129,-24.902
1790603614.640384,35.156,-33.691,-56.152,2.441
1790603614.644040,52.246,-41.504,-66.406,-15.625
1790603614.647696,-43.945,-40.527,-71.777,-40.527
1790603614.653861,-70.801,-46.875,-68.848,-41.016
1790603614.657526,24.902,-49.316,-64.941,-12.207
1790603614.661192,73.242,-31.250,-47.363,2.441
1790603614.664858,-24.902,-34.180,-48.828,-26.855
1790603614.668523,-77.637,-37.109,-62.988,-34.180
1790603614.672189,1.465,-35.156,-61.035,-5.859
1790603614.675855,79.590,-37.109,-58.594,13.184
1790603614.679520,9.766,-26.367,-50.293,-0.977
1790603614.683186,-70.801,-27.344,-33.203,0.977
1790603614.686852,-39.551,-50.293,-38.574,3.418
1790603614.690517,59.570,-53.223,-54.688,4.883
1790603614.694183,59.082,-36.621,-59.082,11.719
1790603614.700247,-50.781,-29.297,-63.965,-0.977
1790603614.703922,-62.988,-39.551,-68.848,-13.184
1790603614.707597,38.086,-45.898,-77.148,5.371
1790603614.711272,70.801,-36.133,-77.637,-3.906
1790603614.714946,-32.715,-43.945,-72.266,-49.805
1790603614.718621,-90.820,-57.129,-63.965,-41.016
1790603614.722296,-18.555,-61.035,-70.801,-14.160
1790603614.725971,63.965,-52.246,-73.730,11.230
1790603614.729645,-3.418,-50.293,-51.270,13.672
1790603614.733320,-97.168,-62.012,-61.523,-24.414
1790603614.736995,-35.645,-58.594,-87.891,-37.109
1790603614.740669,65.430,-51.270,-81.055,-20.508
1790603614.746525,15.137,-41.504,-64.941,-9.766
1790603614.750207,-76.660,-44.434,-77.148,-17.090
1790603614.753890,-65.430,-63.965,-72.266,-34.668
1790603614.757573,29.297,-63.965,-59.082,-22.461
1790603614.761256,33.691,-65.918,-76.660,-19.043
1790603614.764938,-54.688,-62.500,-66.895,-27.344
1790603614.768621,-81.543,-54.199,-64.453,-13.184
1790603614.772303,14.648,-54.199,-73.242,1.465
1790603614.775986,54.688,-48.340,-81.543,-9.277
1790603614.779669,-55.664,-44.434,-81.543,-41.504
1790603614.783351,-88.379,-45.410,-65.430,-43.457
1790603614.787034,-2.930,-32.715,-73.242,-6.348
1790603614.792686,66.406,-37.109,-84.473,-2.930
1790603614.796376,1.465,-56.641,-82.031,-35.645
1790603614.800065,-82.031,-54.199,-70.801,-41.016
1790603614.803754,-40.527,-45.898,-62.012,-30.762
1790603614.807444,54.199,-46.875,-74.219,-20.508
1790603614.811133,19.043,-55.176,-74.219,3.418
1790603614.814823,-62.988,-51.270,-61.035,-20.020
1790603614.818512,-38.574,-41.504,-51.758,-24.902
1790603614.822202,56.641,-40.527,-53.223,0.000
1790603614.825891,46.875,-38.086,-67.383,-11.719
1790603614.829581,-72.754,-51.270,-73.730,-39.062
1790603614.833270,-83.984,-61.523,-68.359,-41.504
1790603614.839015,28.320,-46.387,-66.406,4.883
1790603614.842711,93.262,-37.109,-47.363,19.531
1790603614.846408,-7.812,-37.598,-42.480,-0.977
1790603614.850104,-75.195,-35.156,-45.410,-19.043
1790603614.853801,4.395,-24.902,-23.438,5.371
1790603614.857497,103.516,-23.926,-34.180,30.762
1790603614.861193,42.480,-33.691,-58.105,-4.883
1790603614.864889,-55.176,-40.527,-61.523,-20.996
1790603614.868586,-21.484,-42.480,-60.059,5.859
1790603614.872282,69.336,-41.016,-45.410,36.621
1790603614.875978,54.688,-43.945,-44.922,30.273
1790603614.879675,-50.781,-41.992,-54.199,-2.441
1790603614.885024,-52.734,-41.504,-55.664,-13.672
1790603614.888725,69.336,-29.785,-42.480,26.855
1790603614.892427,83.984,-26.855,-39.062,23.926
1790603614.896129,-44.434,-35.156,-47.852,-23.438
1790603614.899830,-81.543,-37.598,-52.734,-11.230
1790603614.903532,15.137,-58.105,-64.453,-0.977
1790603614.907233,81.055,-58.105,-56.152,6.348
1790603614.910935,-9.766,-53.223,-41.992,12.207
1790603614.914637,-87.891,-56.641,-63.965,-18.555
1790603614.918338,-11.230,-46.875,-61.523,5.371
1790603614.922040,99.121,-32.715,-41.992,50.781
1790603614.925742,35.645,-26.367,-49.316,29.785
1790603614.931076,-75.684,-44.922,-50.781,0.488
1790603614.934783,-47.852,-51.270,-51.270,-20.508
1790603614.938490,62.988,-44.922,-59.570,3.418
1790603614.942196,50.781,-43.945,-57.617,8.789
1790603614.945903,-64.453,-39.062,-49.316,-24.414
1790603614.949610,-67.383,-37.598,-35.645,8.301
1790603614.953316,45.410,-33.203,-37.598,25.391
1790603614.957023,74.219,-34.668,-41.504,19.043
1790603614.960730,-32.227,-38.574,-30.762,14.648
1790603614.964436,-92.285,-44.434,-38.086,-1.953
1790603614.968143,-19.531,-53.711,-59.082,-3.418
1790603614.971850,63.477,-49.316,-68.848,6.836
1790603614.978107,-32.715,-51.758,-75.195,-34.668
1790603614.981821,-116.211,-62.500,-79.102,-50.293
1790603614.985536,-33.691,-53.711,-71.777,-12.207
1790603614.989250,60.547,-41.016,-57.129,14.160
1790603614.992964,15.137,-32.227,-57.129,-1.465
1790603614.996678,-86.426,-42.969,-61.035,-15.137
1790603615.000393,-69.336,-48.340,-58.594,-15.137
1790603615.004107,43.457,-46.387,-54.688,7.324
1790603615.007821,50.781,-50.781,-66.406,11.230
1790603615.011535,-55.664,-52.734,-82.520,-8.301
1790603615.015250,-89.355,-54.199,-85.938,-20.996
1790603615.018964,-3.906,-57.129,-97.168,-33.691
1790603615.025025,53.711,-56.152,-86.914,-2.441
1790603615.028746,-26.855,-45.410,-70.801,-11.230
1790603615.032467,-103.027,-46.387,-72.266,-42.969
1790603615.036188,-26.855,-56.152,-68.359,-19.531
1790603615.039909,61.523,-63.965,-72.754,15.625
1790603615.043630,-20.996,-70.801,-86.914,-16.113
1790603615.047351,-103.027,-67.871,-87.402,-37.598
1790603615.051072,-52.734,-60.547,-81.055,-24.902
1790603615.054793,63.477,-55.664,-86.426,4.395
1790603615.058514,20.020,-59.082,-84.473,24.902
1790603615.062235,-100.098,-61.523,-78.125,1.465
1790603615.065956,-65.918,-49.316,-66.406,-23.438
1790603615.071721,58.594,-40.527,-62.500,-11.719
1790603615.075448,69.824,-43.457,-66.895,20.020
1790603615.079174,-56.152,-55.176,-71.289,-11.719
1790603615.082901,-86.426,-54.688,-68.359,-28.809
1790603615.086628,12.695,-51.270,-63.477,-7.324
1790603615.090354,72.266,-45.410,-60.547,13.184
1790603615.094081,-12.207,-36.133,-53.223,12.207
1790603615.097808,-74.219,-38.574,-37.598,-3.906
1790603615.101534,3.906,-30.273,-31.738,11.230
1790603615.105261,84.473,-24.414,-46.875,-4.395
1790603615.108988,16.113,-37.598,-63.477,-34.668
1790603615.112715,-72.754,-46.875,-61.035,-19.531
1790603615.118456,-37.109,-43.945,-49.316,-2.930
1790603615.122188,53.223,-43.945,-51.270,13.184
1790603615.125921,28.320,-42.480,-52.246,0.000
1790603615.129653,-77.148,-38.574,-47.363,-30.273
1790603615.133385,-73.730,-24.902,-33.203,-19.531
1790603615.137117,25.879,-11.719,-30.273,8.301
1790603615.140849,55.176,-23.438,-45.410,-11.719
1790603615.144581,-46.875,-30.273,-34.668,-17.090
1790603615.148313,-83.984,-20.996,-38.086,5.371
1790603615.152045,14.160,-34.668,-52.246,11.719
1790603615.155777,54.688,-41.504,-35.645,-2.441
1790603615.159509,-57.129,-30.273,-33.203,-61.523
1790603615.165062,0.000,-26.367,-32.715,-53.711
1790603615.168799,0.000,-9.766,-24.414,-18.066
1790603615.172536,0.000,-11.230,-8.789,3.906
1790603615.176273,0.000,-19.531,-6.348,1.465
1790603615.180009,0.000,-17.090,-17.578,-46.875
1790603615.183746,0.000,-19.043,-14.160,-26.367
1790603615.187483,0.000,-11.719,-1.465,40.527
1790603615.191220,0.000,-7.812,2.441,33.203
1790603615.194957,0.000,-16.113,-10.254,-15.137
1790603615.198694,0.000,-20.508,-12.695,-12.207
1790603615.202430,0.000,-4.883,-7.324,33.691
1790603615.206167,0.000,5.859,-14.648,45.410
1790603615.211494,-0.488,-11.719,-16.602,24.414
1790603615.215235,-44.922,-14.160,-8.301,37.109
1790603615.218976,57.129,-7.812,-27.832,40.527
1790603615.222716,125.488,-11.719,-36.621,49.316
1790603615.226457,30.762,-28.809,-31.250,44.922
1790603615.230198,-50.781,-41.504,-37.598,26.367
1790603615.233939,9.766,-41.504,-31.738,49.316
1790603615.237680,109.863,-39.551,-26.367,48.828
1790603615.241421,67.383,-39.551,-53.223,12.207
1790603615.245162,-35.645,-45.410,-72.266,-4.883
1790603615.248902,-16.602,-50.293,-60.059,12.695
1790603615.252643,102.051,-53.223,-54.199,49.316
1790603615.257979,97.656,-55.176,-62.988,48.340
1790603615.261724,-39.551,-49.316,-65.918,19.531
1790603615.265468,-61.523,-50.293,-56.152,10.254
1790603615.269213,33.691,-58.105,-46.875,24.414
1790603615.272958,85.449,-54.199,-58.594,-4.883
1790603615.276703,5.859,-45.898,-69.824,-26.367
1790603615.280447,-72.754,-53.711,-68.359,5.371
1790603615.284192,-13.672,-58.105,-76.172,14.160
1790603615.287937,79.102,-48.828,-78.125,12.207
1790603615.291682,28.809,-46.875,-75.195,-2.930
1790603615.295427,-65.918,-59.082,-74.707,-24.902
1790603615.299171,-28.809,-54.688,-66.406,-16.113
1790603615.304260,0.000,-53.711,-76.172,2.441
1790603615.308007,0.000,-61.035,-87.402,-0.488
1790603615.311755,0.000,-58.105,-81.543,-24.414
1790603615.315504,0.000,-62.012,-78.613,-20.020
1790603615.319252,0.000,-56.641,-65.918,3.418
1790603615.322999,0.000,-45.410,-58.594,11.230
1790603615.326747,0.000,-52.246,-64.453,-20.020
1790603615.330495,0.000,-58.105,-61.035,-36.621
1790603615.334243,0.000,-54.688,-56.641,-7.812
1790603615.337991,0.000,-65.918,-68.848,14.160
1790603615.341739,0.000,-75.195,-88.379,6.348
1790603615.345487,0.000,-78.613,-93.750,-24.414
1790603615.351394,-26.367,-71.289,-89.355,-32.227
1790603615.355147,68.359,-53.711,-87.891,2.930
1790603615.358900,9.277,-62.988,-86.426,-9.766
1790603615.362653,-84.961,-76.660,-82.031,-46.875
1790603615.366405,-35.156,-71.777,-77.637,-24.902
1790603615.370158,59.570,-66.895,-77.637,12.207
1790603615.373911,34.668,-76.172,-95.703,-3.418
1790603615.377664,-64.453,-71.777,-95.215,-10.742
1790603615.381417,-64.453,-61.035,-83.496,3.906
1790603615.385170,51.758,-67.871,-80.078,12.695
1790603615.388923,79.590,-67.871,-74.219,12.695
1790603615.392676,-35.645,-58.594,-66.895,-3.906
1790603615.398350,-73.730,-51.270,-62.500,-18.066
1790603615.402107,8.789,-52.246,-54.688,5.371
1790603615.405864,66.406,-66.406,-69.336,10.254
1790603615.409622,0.000,-62.988,-66.406,9.766
1790603615.413379,-79.590,-54.199,-41.992,1.953
1790603615.417136,-34.180,-60.547,-43.457,-2.930
1790603615.420894,64.941,-57.129,-60.547,16.113
1790603615.424651,33.691,-56.641,-68.359,16.602
1790603615.428408,-62.988,-58.594,-57.129,14.160
1790603615.432166,-43.945,-48.828,-48.828,23.438
1790603615.435923,78.125,-47.363,-72.266,34.180
1790603615.439680,93.750,-41.504,-81.055,32.227
1790603615.445216,-30.762,-34.668,-55.664,25.879
1790603615.448977,-68.848,-55.176,-41.504,6.348
1790603615.452738,30.762,-72.266,-45.898,12.207
1790603615.456500,78.125,-68.848,-61.523,27.344
1790603615.460261,-21.484,-64.941,-56.641,2.441
1790603615.464022,-84.473,-69.824,-55.664,-15.625
1790603615.467783,-8.789,-79.590,-56.641,34.180
1790603615.471544,77.637,-72.266,-48.340,66.895
1790603615.475305,19.043,-73.730,-53.711,39.551
1790603615.479067,-62.500,-75.684,-62.012,-6.348
1790603615.482828,-12.695,-62.012,-44.922,0.000
1790603615.486589,102.539,-57.617,-34.668,48.828
1790603615.492011,71.777,-64.453,-36.621,48.828
1790603615.495776,-53.711,-65.918,-38.574,17.090
1790603615.499540,-47.852,-58.594,-56.152,20.020
1790603615.503305,62.500,-59.082,-62.500,37.598
1790603615.507070,70.801,-64.453,-63.965,41.504
1790603615.510834,-43.457,-64.941,-61.523,17.090
1790603615.514599,-75.195,-62.500,-59.570,6.836
1790603615.518364,25.879,-59.570,-63.477,16.602
1790603615.522129,87.402,-55.176,-59.570,32.227
1790603615.525893,-11.230,-48.828,-46.387,18.066
1790603615.529658,-75.195,-54.688,-50.781,-10.742
1790603615.533423,8.789,-58.594,-63.965,-7.324
1790603615.538678,85.938,-63.477,-78.613,32.715
1790603615.542446,4.883,-84.473,-80.566,20.020
1790603615.546214,-95.215,-75.684,-65.430,-24.902
1790603615.549981,-41.992,-57.617,-53.223,-11.719
1790603615.553749,55.664,-67.871,-56.641,12.207
1790603615.557517,22.461,-88.379,-72.266,-18.066
1790603615.561285,-69.336,-82.031,-74.219,-42.480
1790603615.565053,-53.223,-64.941,-58.594,17.090
1790603615.568820,50.293,-67.871,-59.082,45.898
1790603615.572588,60.547,-68.848,-60.059,10.742
1790603615.576356,-52.246,-69.336,-56.641,-18.555
1790603615.580124,-84.961,-65.918,-62.012,-17.090
1790603615.585333,0.000,-54.199,-52.734,14.160
1790603615.589104,0.000,-50.781,-51.270,12.695
1790603615.592875,0.000,-52.246,-47.363,2.930
1790603615.596646,0.000,-65.918,-48.828,-19.531
1790603615.600416,0.000,-75.195,-66.406,-10.742
1790603615.604187,0.000,-66.406,-68.359,16.602
1790603615.607958,0.000,-65.430,-41.016,10.254
1790603615.611729,0.000,-83.496,-52.246,-21.484
1790603615.615499,0.000,-97.656,-92.285,-48.828
1790603615.619270,0.000,-93.262,-98.145,-20.020
1790603615.623041,0.000,-85.938,-97.168,-12.695
1790603615.626812,0.000,-85.938,-94.238,-49.316
1790603615.631932,-107.422,-85.449,-99.609,-15.625
1790603615.635705,6.348,-83.984,-103.027,17.090
1790603615.639479,62.988,-92.285,-83.984,-0.977
1790603615.643252,-48.828,-100.098,-82.031,-30.762
1790603615.647026,-91.797,-89.844,-92.285,-35.645
1790603615.650799,0.977,-79.102,-100.098,3.906
1790603615.654572,66.895,-68.848,-95.703,19.531
1790603615.658346,-17.090,-65.918,-91.797,-3.906
1790603615.662119,-103.516,-64.941,-86.914,-18.066
1790603615.665893,-46.875,-59.082,-80.078,7.324
1790603615.669666,51.270,-57.617,-83.496,24.902
1790603615.673440,22.949,-60.547,-90.820,-6.836
1790603615.678384,-70.801,-59.570,-82.031,-23.438
1790603615.682160,-48.828,-52.734,-73.730,-17.578
1790603615.685935,65.430,-58.594,-89.355,14.160
1790603615.689711,69.824,-56.152,-90.820,16.602
1790603615.693487,-46.387,-37.109,-78.125,4.395
1790603615.697263,-74.707,-40.527,-83.496,-3.418
1790603615.701038,19.043,-46.387,-90.332,-19.043
1790603615.704814,67.383,-45.410,-76.172,0.977
1790603615.708590,-12.695,-42.480,-57.129,7.812
1790603615.712366,-66.406,-35.645,-58.594,-10.254
1790603615.716141,-1.953,-41.992,-62.500,3.418
1790603615.719917,81.543,-44.922,-70.312,15.625
1790603615.725558,28.809,-38.086,-72.266,17.578
1790603615.729337,-70.801,-38.574,-52.246,14.648
1790603615.733116,-38.574,-35.645,-41.016,29.297
1790603615.736896,66.406,-51.758,-72.266,15.625
1790603615.740675,59.570,-61.035,-83.008,-3.906
1790603615.744454,-43.945,-53.711,-77.637,5.371
1790603615.748233,-54.199,-61.523,-79.102,2.441
1790603615.752012,59.082,-62.988,-66.406,31.250
1790603615.755792,82.031,-54.688,-70.801,20.996
1790603615.759571,-15.625,-48.828,-63.477,6.836
1790603615.763350,-55.664,-54.199,-61.035,9.277
1790603615.767129,37.109,-60.059,-74.219,7.324
1790603615.772625,90.332,-66.895,-87.402,30.762
1790603615.776408,-5.859,-69.336,-86.426,23.438
1790603615.780190,-81.055,-68.848,-75.684,-16.602
1790603615.783973,-11.719,-61.035,-77.148,-25.391
1790603615.787755,95.215,-44.922,-71.289,36.621
1790603615.791538,22.949,-50.781,-72.266,30.762
1790603615.795320,-81.055,-59.570,-84.961,-27.832
1790603615.799102,-39.062,-43.457,-78.613,-31.250
1790603615.802885,75.684,-39.062,-62.500,15.137
1790603615.806667,67.871,-53.711,-76.172,6.348
1790603615.810450,-67.383,-63.965,-78.125,-39.062
1790603615.814232,-81.055,-61.035,-66.895,-12.207
1790603615.819655,0.000,-68.359,-76.660,-2.441
1790603615.823441,0.000,-65.918,-81.543,-19.043
1790603615.827226,0.000,-60.547,-88.867,-22.949
1790603615.831012,0.000,-63.965,-84.473,-49.805
1790603615.834797,0.000,-60.547,-70.801,-37.598
1790603615.838582,0.000,-53.711,-62.988,-20.020
1790603615.842368,0.000,-59.082,-60.547,-40.527
1790603615.846153,0.000,-67.383,-74.707,-58.594
1790603615.849939,0.000,-61.523,-77.637,-80.078
1790603615.853724,0.000,-59.570,-82.031,-54.688
1790603615.857509,0.000,-52.734,-88.379,-63.477
1790603615.861295,0.000,-46.875,-73.730,-79.102
1790603615.866587,-121.582,-44.922,-77.148,-103.027
1790603615.870375,-33.203,-42.480,-83.496,-129.395
1790603615.874163,-13.672,-38.086,-67.383,-81.055
1790603615.877952,-137.207,-40.039,-67.383,-92.773
1790603615.881740,-168.945,-46.387,-83.984,-118.164
1790603615.885528,-61.523,-45.410,-88.867,-89.844
1790603615.889316,-13.672,-48.340,-70.312,-68.359
1790603615.893104,-94.238,-52.246,-58.105,-68.848
1790603615.896892,-137.207,-48.340,-77.637,-103.027
1790603615.900680,-64.453,-49.316,-97.168,-116.699
1790603615.904468,13.672,-46.875,-98.145,-75.195
1790603615.908256,-53.223,-38.574,-86.914,-62.500
1790603615.913344,-139.648,-40.039,-84.961,-78.125
1790603615.917135,-97.656,-47.363,-76.660,-70.801
1790603615.920925,7.324,-52.246,-69.824,-29.785
1790603615.924715,-10.254,-54.688,-80.078,-50.781
1790603615.928506,-109.375,-49.316,-83.008,-91.797
1790603615.932296,-101.074,-42.480,-80.566,-101.562
1790603615.936086,16.113,-41.992,-74.707,-42.480
1790603615.939877,28.320,-41.992,-68.848,-0.977
1790603615.943667,-92.285,-48.340,-73.730,-37.598
1790603615.947457,-119.141,-47.852,-82.520,-65.430
1790603615.951247,-20.020,-44.434,-78.613,-47.363
1790603615.955038,39.551,-42.480,-71.289,-20.996
1790603615.961531,-45.410,-40.039,-61.035,-34.668
1790603615.965326,-103.516,-43.457,-51.270,-41.504
1790603615.969121,-41.992,-43.457,-72.266,-32.715
1790603615.972916,27.344,-43.457,-92.773,-6.348
1790603615.976711,-19.043,-38.086,-89.844,-9.277
1790603615.980506,-97.656,-26.855,-69.824,-34.180
1790603615.984301,-64.941,-25.391,-59.570,-36.133
1790603615.988096,46.387,-28.320,-59.570,-4.395
1790603615.991891,21.484,-33.203,-82.031,-20.996
1790603615.995686,-80.078,-33.203,-81.543,-33.203
1790603615.999480,-78.613,-31.738,-65.430,-22.949
1790603616.003275,13.184,-37.109,-83.496,-14.648
1790603616.008143,39.551,-32.715,-90.332,-9.277
1790603616.011940,-57.617,-20.996,-79.590,-44.922
1790603616.015736,-94.727,-18.066,-65.918,-60.059
1790603616.019533,-3.418,-22.461,-64.453,-26.367
1790603616.023330,63.965,-12.695,-69.824,-0.488
1790603616.027126,-23.926,-7.324,-67.383,-28.320
1790603616.030923,-109.863,-28.320,-74.707,-47.852
1790603616.034720,-57.129,-41.016,-79.590,-25.391
1790603616.038517,52.734,-34.668,-85.449,2.441
1790603616.042313,17.578,-21.484,-73.242,1.465
1790603616.046110,-93.262,-19.043,-66.895,-13.184
1790603616.049907,-73.730,-23.438,-75.195,-26.855
1790603616.054593,35.156,-28.320,-66.895,-20.508
1790603616.058391,51.758,-19.531,-57.129,-1.465
1790603616.062189,-18.555,-14.648,-46.387,19.043
1790603616.065987,-52.246,-10.742,-38.574,19.043
1790603616.069785,-2.441,-5.371,-41.504,-2.930
1790603616.073583,23.438,-22.461,-69.336,-33.691
1790603616.077382,-61.035,-21.973,-77.637,-45.410
1790603616.081180,-128.418,-19.531,-64.941,-59.082
1790603616.084978,-54.688,-14.160,-63.965,-53.223
1790603616.088776,44.922,3.418,-51.270,-18.066
1790603616.092574,-35.156,-9.766,-53.223,-38.086
1790603616.096372,-128.906,-19.043,-68.848,-65.918
1790603616.101672,-71.777,-8.789,-58.105,-48.340
1790603616.105473,36.621,-11.230,-50.293,-26.855
1790603616.109273,3.418,-11.719,-49.805,-19.043
1790603616.113074,-106.445,-13.184,-61.523,-30.762
1790603616.116875,-76.172,-9.277,-62.012,-36.133
1790603616.120675,50.781,-2.930,-57.617,9.766
1790603616.124476,48.340,-10.254,-67.383,17.578
1790603616.128276,-82.520,-18.555,-75.684,-52.246
1790603616.132077,-106.934,-28.809,-81.543,-61.035
1790603616.135878,4.883,-20.508,-67.383,2.441
1790603616.139678,45.898,-17.578,-64.941,-1.465
1790603616.143479,-56.152,-21.973,-67.383,-57.129
1790603616.148654,-112.305,-11.719,-58.594,-33.203
1790603616.152457,-38.574,-19.531,-72.266,-13.184
1790603616.156259,48.828,-26.367,-92.773,-17.090
1790603616.160062,-5.859,-9.766,-66.406,-6.836
1790603616.163865,-95.215,-5.371,-52.734,-7.812
1790603616.167668,-55.176,-13.672,-69.336,-9.277
1790603616.171470,59.570,-13.672,-75.195,20.996
1790603616.175273,37.109,-18.555,-71.777,0.488
1790603616.179076,-86.914,-14.648,-61.523,-22.949
1790603616.182878,-92.773,-8.789,-49.316,-25.391
1790603616.186681,29.785,-7.812,-69.336,-6.836
1790603616.190484,78.125,0.977,-66.406,-15.625
1790603616.195559,-44.434,-6.348,-52.246,-57.129
1790603616.199363,-91.797,-9.766,-80.078,-17.090
1790603616.203168,13.672,-13.184,-72.266,24.902
1790603616.206973,79.590,-19.531,-67.383,32.227
1790603616.210778,-15.137,-15.625,-62.988,-0.488
1790603616.214582,-91.309,-13.184,-46.387,-34.668
1790603616.218387,-17.578,-17.090,-48.340,4.883
1790603616.222192,74.219,-18.555,-53.223,32.227
1790603616.225996,17.090,-13.184,-48.340,25.879
1790603616.229801,-92.773,-21.973,-61.523,-8.301
1790603616.233606,-48.828,-17.090,-72.754,-23.438
1790603616.237410,68.359,-13.184,-61.035,1.953
1790603616.242405,39.062,-20.996,-57.129,1.465
1790603616.246212,-70.801,-22.461,-56.152,-34.180
1790603616.250018,-88.867,-33.203,-61.523,-1.953
1790603616.253825,12.207,-35.156,-75.684,10.254
1790603616.257631,66.895,-25.879,-66.406,0.000
1790603616.261438,-34.180,-28.320,-38.086,21.973
1790603616.265244,-90.820,-34.180,-43.457,3.418
1790603616.269051,23.438,-30.273,-43.457,13.184
1790603616.272857,99.121,-33.203,-41.016,52.734
1790603616.276664,2.930,-31.250,-48.828,6.836
1790603616.280470,-67.871,-30.273,-41.992,-29.297
1790603616.284277,-24.902,-45.410,-57.617,-13.672
1790603616.289179,66.406,-42.969,-77.637,2.441
1790603616.292987,30.762,-36.621,-69.336,0.977
1790603616.296795,-51.758,-40.039,-57.129,16.602
1790603616.300604,-25.879,-32.227,-48.340,29.785
1790603616.304412,49.805,-21.973,-54.688,20.020
1790603616.308220,21.973,-37.109,-81.055,1.465
1790603616.312028,-81.055,-44.922,-75.195,-15.625
1790603616.315836,-87.402,-34.180,-66.406,-49.316
1790603616.319644,5.859,-30.762,-75.195,-81.055
1790603616.323452,58.594,-29.785,-78.613,20.020
1790603616.327260,-40.039,-34.668,-71.777,-11.230
1790603616.331069,-98.145,-36.621,-57.129,-55.176
1790603616.335914,-0.977,-26.855,0.000,10.742
1790603616.339723,82.520,-27.344,0.000,14.160
1790603616.343533,13.672,-32.227,0.000,12.695
1790603616.347343,-68.848,-22.461,0.000,21.484
1790603616.351152,-30.762,-27.344,0.000,-16.113
1790603616.354962,75.684,-34.180,0.000,-21.484
1790603616.358772,29.785,-38.086,0.000,-35.156
1790603616.362581,-84.961,-41.504,0.000,-26.855
1790603616.366391,-75.684,-43.945,0.000,-10.254
1790603616.370201,34.180,-39.062,0.000,-3.906
1790603616.374010,41.992,-46.387,0.000,-11.719
1790603616.377820,-54.688,-46.387,0.000,-20.508
1790603616.382575,-74.219,-21.484,-99.609,-42.480
1790603616.386385,27.344,-7.324,-70.801,-30.273
1790603616.390197,90.332,-14.648,-53.223,56.641
1790603616.394007,-18.066,-21.973,-50.781,-6.348
1790603616.397819,-93.262,-24.414,-52.734,-17.090
1790603616.401629,-17.578,-30.273,-63.965,2.441
1790603616.405441,74.707,-37.598,-41.504,-9.766
1790603616.409251,14.648,-31.738,-62.988,-0.488
1790603616.413063,-89.844,-24.414,-83.496,-2.441
1790603616.416873,-47.363,-22.461,-72.754,19.531
1790603616.420685,65.430,-17.578,-74.707,6.836
1790603616.424495,45.410,-12.207,-82.520,-62.012
1790603616.429148,-57.617,-15.625,-47.363,-50.781
1790603616.432960,-72.266,-35.645,-43.457,-3.418
1790603616.436773,37.598,-42.480,-61.035,79.590
1790603616.440585,78.613,-35.156,-37.109,81.055
1790603616.444397,-34.180,-30.273,-39.062,35.156
1790603616.448209,-71.777,-29.297,-54.688,-38.574
1790603616.452021,15.625,-26.855,-78.613,-10.254
1790603616.455833,68.359,-30.273,-57.129,62.500
1790603616.459646,-15.625,-25.879,-50.781,-10.742
1790603616.463458,-81.055,-25.391,-63.477,-45.898
1790603616.467270,-12.695,-23.926,-57.129,6.348
1790603616.471082,66.406,-26.855,-60.547,94.238
1790603616.476288,0.000,-19.043,-71.289,39.062
1790603616.480102,0.000,-7.812,-61.035,-39.551
1790603616.483916,0.000,-9.766,-50.781,1.953
1790603616.487730,0.000,-20.020,-48.340,-7.324
1790603616.491544,0.000,-29.785,-58.594,-19.531
1790603616.495358,0.000,-20.020,-73.730,-19.043
1790603616.499172,0.000,-26.855,-76.172,-24.414
1790603616.502987,0.000,-32.227,-74.707,-34.668
1790603616.506801,0.000,-31.250,-67.383,14.160
1790603616.510615,0.000,-26.367,-54.688,13.672
1790603616.514429,0.000,-21.484,-73.242,3.418
1790603616.518243,0.000,-26.855,-82.031,78.613
1790603616.521617,29.785,-27.832,-62.988,6.836
1790603616.525431,-62.012,-32.227,-55.176,-85.449
1790603616.529244,-40.527,-26.855,-59.570,-43.457
1790603616.533058,59.570,-10.254,-74.707,10.742
1790603616.536871,50.781,-17.090,-48.828,-23.438
1790603616.540685,-46.387,-28.809,-49.316,-60.547
1790603616.544498,-54.199,-19.531,-76.172,67.383
1790603616.548312,47.363,-12.695,-53.711,74.219
1790603616.552125,76.660,-13.672,-58.105,72.266
1790603616.555939,-32.715,-27.832,-66.895,61.035
1790603616.559752,-87.402,-21.973,-80.566,-8.789
1790603616.563566,-3.418,-16.113,-78.125,-9.277
1790603616.566941,81.543,-22.949,-63.965,-25.391
1790603616.570753,19.043,-19.531,-54.199,23.926
1790603616.574566,-63.477,-13.672,-40.039,19.043
1790603616.578379,-7.324,-3.906,-30.762,-4.395
1790603616.582192,91.797,4.395,-41.504,68.359
1790603616.586005,50.293,-16.602,-54.199,93.750
1790603616.589818,-48.340,-24.414,-63.477,-6.348
1790603616.593631,-40.527,-13.672,-64.453,-54.688
1790603616.597444,58.594,-25.391,-60.547,16.602
1790603616.601257,84.961,-33.203,-46.387,46.875
1790603616.605070,-10.742,-24.414,-53.223,-70.312
1790603616.608883,-49.316,-19.531,-56.152,-28.809
1790603616.614011,-87.891,-29.297,-22.949,73.730
1790603616.617826,7.812,-28.809,-24.414,21.973
1790603616.621641,77.148,-26.855,-56.152,-16.113
1790603616.625455,-34.180,-26.855,-65.430,31.738
1790603616.629270,-82.520,-27.344,-60.059,36.133
1790603616.633085,20.996,-35.645,-63.965,-27.344
1790603616.636899,106.445,-32.715,-56.641,52.246
1790603616.640714,12.207,-29.297,-31.250,64.941
1790603616.644529,-53.223,-21.484,-41.016,-15.137
1790603616.648343,-7.812,-28.320,-42.969,13.184
1790603616.652158,89.355,-27.344,-44.922,28.809
1790603616.655973,37.109,-15.625,-58.594,-25.391
1790603616.660915,0.000,-30.273,-42.480,-21.973
1790603616.664731,0.000,-22.461,-71.289,56.152
1790603616.668547,0.000,-18.555,-50.781,-33.691
1790603616.672363,0.000,-46.387,-30.762,-21.973
1790603616.676179,0.000,-46.387,-78.613,42.480
1790603616.679996,0.000,-46.387,-65.918,-24.414
1790603616.683812,0.000,-48.828,-61.523,-2.441
1790603616.687628,0.000,-40.039,-70.312,6.348
1790603616.691444,0.000,-52.734,-55.664,42.969
1790603616.695260,0.000,-33.203,-68.848,-37.109
1790603616.699076,0.000,-23.438,-76.660,-53.711
1790603616.702893,0.000,-33.691,-57.617,18.555
1790603616.706100,-78.613,-18.066,-33.691,-60.547
1790603616.709916,-21.484,-23.438,-43.457,-30.273
1790603616.713731,83.496,-43.945,-81.543,67.871
1790603616.717546,24.414,-38.574,-72.754,6.348
1790603616.721362,-89.355,-36.621,-62.500,-3.906
1790603616.725177,-65.918,-38.574,-82.520,-9.277
1790603616.728993,50.781,-35.645,-81.055,-66.406
1790603616.732808,67.383,-47.363,-63.965,-8.789
1790603616.736623,-60.059,-60.547,-67.871,62.500
1790603616.740439,-75.195,-50.293,-56.152,54.688
1790603616.744254,21.973,-38.086,-46.875,-14.160
1790603616.748070,68.848,-43.457,-49.316,23.926
1790603616.753450,78.613,-41.992,-36.133,29.785
1790603616.757267,3.906,-41.016,-50.293,-4.883
1790603616.761084,-73.242,-49.805,-80.078,0.488
1790603616.764902,10.742,-49.805,-76.172,-52.734
1790603616.768719,95.215,-50.781,-66.406,45.410
1790603616.772536,-7.324,-55.176,-55.664,68.848
1790603616.776354,-82.520,-46.387,-49.316,-60.059
1790603616.780171,-18.066,-44.922,-50.781,2.441
1790603616.783988,77.637,-43.457,-63.965,17.578
1790603616.787806,50.293,-37.109,-47.363,13.184
1790603616.791623,-55.176,-40.527,-33.203,17.090
1790603616.795440,-45.898,-44.434,-64.453,-35.156
1790603616.800170,55.176,-42.480,-71.777,30.273
1790603616.803989,85.449,-43.945,-47.852,72.266
1790603616.807807,-39.062,-47.363,-44.434,-32.715
1790603616.811626,-73.242,-36.621,-37.109,-59.082
1790603616.815444,16.113,-36.133,-56.152,-22.461
1790603616.819263,83.496,-38.086,-51.758,-0.977
1790603616.823081,19.043,-34.180,-47.363,54.688
1790603616.826900,-83.496,-46.875,-56.152,82.520
1790603616.830718,-38.086,-49.316,-43.945,-32.715
1790603616.834537,77.148,-47.363,-49.805,-78.613
1790603616.838355,20.508,-56.152,-65.918,-12.207
1790603616.842174,-90.820,-64.941,-39.551,-7.324
1790603616.847389,-28.809,-52.734,-18.066,23.926
1790603616.851209,66.406,-50.293,-20.020,53.711
1790603616.855029,45.898,-62.988,-17.578,46.387
1790603616.858849,-82.031,-60.059,-22.949,-74.219
1790603616.862669,-95.703,-56.641,-30.273,-46.387
1790603616.866489,29.297,-62.012,-16.113,61.035
1790603616.870310,61.035,-70.801,-25.391,-25.391
1790603616.874130,-78.125,-72.754,-48.828,-93.262
1790603616.877950,-100.098,-56.641,-44.922,10.254
1790603616.881770,12.695,-50.781,-13.672,73.730
1790603616.885590,70.312,-60.059,-30.762,2.930
1790603616.889411,-25.391,-66.406,-50.781,-53.223
1790603616.894578,-103.027,-68.848,-56.152,-24.902
1790603616.898400,-34.180,-71.289,-50.293,39.551
1790603616.902222,62.988,-63.965,-56.152,5.371
1790603616.906044,-31.738,-62.500,-58.594,-16.602
1790603616.909866,-105.469,-71.777,-50.781,-40.039
1790603616.913687,-24.414,-73.242,-55.664,-25.879
1790603616.917509,69.824,-77.148,-71.289,28.320
1790603616.921331,61.523,-74.219,-79.102,5.859
1790603616.925153,-55.176,-70.312,-58.594,-26.855
1790603616.928975,-78.613,-74.219,-69.824,-15.625
1790603616.932796,5.371,-81.055,-66.406,30.273
1790603616.936618,72.754,-65.918,-55.176,-2.441
1790603616.941666,-31.250,-41.992,-70.312,-21.973
1790603616.945489,-114.258,-56.641,-68.359,-18.555
1790603616.949312,-4.395,-61.035,-58.594,-33.203
1790603616.953136,70.312,-62.988,-48.340,0.000
1790603616.956959,-15.137,-64.453,-45.898,38.574
1790603616.960782,-85.938,-53.223,-62.988,-28.809
1790603616.964605,-42.969,-67.871,-42.969,-12.695
1790603616.968429,33.203,-75.195,-25.879,55.664
1790603616.972252,26.855,-62.500,-58.105,10.254
1790603616.976075,-73.730,-59.570,-82.520,-68.359
1790603616.979898,-92.773,-66.895,-78.613,-54.199
1790603616.983722,41.504,-62.500,-48.340,27.832
1790603616.988661,63.965,-53.711,-39.551,4.395
1790603616.992486,-52.246,-50.781,-52.734,-31.250
1790603616.996310,-90.820,-56.152,-47.852,-17.578
1790603617.000135,17.090,-54.688,-43.945,-11.230
1790603617.003960,68.359,-61.035,-41.016,10.254
1790603617.007784,-42.969,-70.312,-57.129,18.066
1790603617.011609,-87.402,-63.965,-64.453,-39.062
1790603617.015433,-1.465,-62.012,-53.711,-48.340
1790603617.019258,69.336,-65.918,-46.875,29.785
1790603617.023082,-7.812,-60.059,-58.105,38.574
1790603617.026907,-99.121,-52.734,-46.387,14.648
1790603617.030732,-32.715,-45.410,-51.270,-29.785
1790603617.035586,76.660,-36.621,-63.477,-26.855
1790603617.039412,56.152,-34.180,-39.062,26.367
1790603617.043238,-56.152,-43.945,-44.922,6.348
1790603617.047064,-49.805,-51.270,-58.105,21.484
1790603617.050889,68.359,-54.199,-44.922,51.758
1790603617.054715,68.359,-60.059,-24.902,5.371
1790603617.058541,-32.227,-58.594,-12.207,-86.914
1790603617.062367,-77.637,-69.336,18.555,1.465
1790603617.066193,-5.371,-79.102,15.137,58.594
1790603617.070019,72.266,-72.754,5.371,-0.488
1790603617.073844,-27.344,-62.988,27.832,-4.883
1790603617.077670,-110.352,-63.477,39.551,8.301
1790603617.082462,-33.691,-74.219,28.320,-20.996
1790603617.086289,41.992,-81.055,32.715,40.039
1790603617.090116,16.602,-76.172,29.297,58.105
1790603617.093943,-76.172,-67.383,31.738,13.184
1790603617.097770,-63.477,-62.988,43.457,-10.254
1790603617.101597,77.637,-62.500,23.926,-13.184
1790603617.105423,78.613,-58.105,25.879,50.781
1790603617.109250,-56.152,-55.664,36.133,32.715
1790603617.113077,-94.238,-62.988,19.531,-14.648
1790603617.116904,2.930,-70.312,12.207,4.883
1790603617.120731,55.664,-69.336,20.996,27.344
1790603617.124558,-34.668,-62.988,14.648,-2.441
1790603617.129314,-88.867,-62.012,-0.977,-64.453
1790603617.133142,-10.742,-71.289,0.000,6.348
1790603617.136970,53.711,-81.055,-2.441,71.289
1790603617.140797,-21.484,-89.355,-13.672,-14.160
1790603617.144625,-114.746,-92.285,-21.484,-35.156
1790603617.148453,-66.406,-85.449,-20.508,-9.277
1790603617.152281,27.832,-89.355,-14.648,2.930
1790603617.156109,0.000,-94.727,-28.320,-19.531
1790603617.159937,-90.332,-86.914,-41.016,-59.570
1790603617.163765,-66.406,-82.031,-39.551,-52.246
1790603617.167593,51.270,-76.660,-42.480,-44.922
1790603617.171421,46.875,-73.730,-49.316,-31.738
1790603617.176075,-75.684,-80.566,-43.457,9.277
1790603617.179904,-93.262,-82.520,-38.086,23.438
1790603617.183733,5.859,-74.707,-25.879,28.809
1790603617.187562,37.109,-77.637,-38.086,-21.973
1790603617.191391,-63.965,-84.473,-59.570,-33.691
1790603617.195220,-114.746,-82.520,-48.828,-50.293
1790603617.199049,-36.621,-77.148,-55.176,-67.871
1790603617.202877,41.504,-67.871,-70.312,-24.902
1790603617.206706,-17.090,-69.824,-50.781,-7.324
1790603617.210535,-99.609,-74.219,-46.875,-18.066
1790603617.214364,-75.195,-75.684,-42.480,-14.648
1790603617.218193,26.367,-72.754,-27.832,28.809
1790603617.223253,0.000,-60.547,-30.273,6.348
1790603617.227083,0.000,-61.523,-32.227,-14.648
1790603617.230913,0.000,-66.895,-37.598,-19.043
1790603617.234743,0.000,-69.336,-40.039,-2.930
1790603617.238574,0.000,-70.801,-41.504,-35.645
1790603617.242404,0.000,-65.430,-47.852,-56.641
1790603617.246234,0.000,-66.406,-26.855,-26.367
1790603617.250064,0.000,-69.336,-21.973,14.648
1790603617.253894,0.000,-67.871,-39.062,18.555
1790603617.257725,0.000,-67.383,-49.316,-10.254
1790603617.261555,0.000,-62.500,-41.016,-37.109
1790603617.265385,0.000,-56.152,-30.762,-36.621
1790603617.270384,75.195,-70.312,-34.668,1.465
1790603617.274216,7.324,-81.543,-47.852,-36.133
1790603617.278047,-97.656,-77.637,-54.199,-69.824
1790603617.281879,-67.871,-79.590,-43.457,-48.828
1790603617.285710,54.199,-71.777,-46.387,-2.930
1790603617.289541,43.945,-69.824,-32.227,-4.395
1790603617.293373,-69.824,-65.918,-32.227,-69.336
1790603617.297204,-73.242,-55.176,-58.105,-57.617
1790603617.301036,44.922,-65.430,-50.781,-8.301
1790603617.304868,85.938,-64.453,-37.598,20.996
1790603617.308699,-40.527,-71.777,-47.363,-28.320
1790603617.312530,-93.750,-82.520,-50.781,-68.359
1790603617.317454,0.000,-82.031,-41.992,12.695
1790603617.321286,0.000,-73.730,-43.945,12.207
1790603617.325119,0.000,-69.824,-37.598,-28.320
1790603617.328952,0.000,-81.055,-54.688,-51.758
1790603617.332784,0.000,-72.754,-73.242,22.461
1790603617.336617,0.000,-50.781,-59.082,3.418
1790603617.340450,0.000,-54.199,-50.781,-51.758
1790603617.344282,0.000,-62.500,-49.805,-14.648
1790603617.348115,0.000,-60.059,-55.176,24.414
1790603617.351948,0.000,-53.223,-57.129,6.348
1790603617.355780,0.000,-42.969,-51.758,-12.695
1790603617.359613,0.000,-41.016,-59.570,-9.277
1790603617.364424,-61.523,-35.156,-60.059,-8.301
1790603617.368258,33.203,-41.992,-51.270,29.785
1790603617.372091,70.801,-43.945,-51.758,23.926
1790603617.375925,-19.043,-26.855,-45.898,-27.832
1790603617.379758,-62.988,-28.320,-42.480,-14.648
1790603617.383592,10.742,-47.363,-50.293,41.992
1790603617.387426,76.660,-44.922,-50.781,17.090
1790603617.391259,-5.371,-25.879,-40.039,9.766
1790603617.395093,-83.008,-23.438,-19.531,6.348
1790603617.398927,-30.273,-40.527,-43.457,-6.348
1790603617.402761,55.664,-40.039,-64.453,30.762
1790603617.406594,23.438,-20.996,-55.664,-36.133
1790603617.411381,-75.684,-34.180,-51.270,-65.430
1790603617.415216,-72.266,-56.152,-35.645,23.926
1790603617.419050,32.715,-50.781,-42.969,4.883
1790603617.422885,35.156,-44.922,-62.988,0.488
1790603617.426720,-61.523,-39.551,-69.336,-79.102
1790603617.430554,-69.336,-33.691,-55.664,-48.828
1790603617.434389,26.367,-33.203,-41.992,73.242
1790603617.438224,73.242,-33.691,-43.457,25.391
1790603617.442058,-41.016,-36.133,-53.223,-39.551
1790603617.445893,-119.141,-32.715,-50.781,-30.273
1790603617.449728,-13.672,-21.484,-53.223,-58.594
1790603617.453562,84.473,-21.484,-72.754,-82.031
1790603617.458254,-0.977,-32.227,-63.477,-7.812
1790603617.462089,-87.891,-38.086,-44.434,40.039
1790603617.465925,-42.480,-36.621,-55.176,32.227
1790603617.469760,56.152,-30.273,-51.270,33.203
1790603617.473596,22.461,-35.645,-48.340,-0.488
1790603617.477432,-83.496,-47.363,-59.082,-53.711
1790603617.481267,-57.617,-45.898,-68.848,-64.453
1790603617.485102,41.016,-49.316,-65.918,-18.555
1790603617.488938,41.992,-43.945,-41.992,17.090
1790603617.492774,-61.523,-43.457,-44.922,-18.555
1790603617.496609,-98.633,-58.105,-70.312,-92.285
1790603617.500445,14.160,-57.617,-85.938,-95.703
1790603617.505080,69.824,-48.828,-89.844,-42.969
1790603617.508916,-31.250,-51.270,-57.617,18.066
1790603617.512753,-112.793,-51.270,-53.223,10.742
1790603617.516589,-56.152,-53.711,-64.941,-18.555
1790603617.520425,47.363,-54.199,-68.848,-1.953
1790603617.524261,-9.277,-59.570,-72.754,-7.812
1790603617.528098,-87.891,-61.523,-61.035,-22.949
1790603617.531934,-54.199,-57.617,-56.641,-25.879
1790603617.535770,26.367,-48.828,-71.289,-58.105
1790603617.539607,23.438,-49.316,-67.383,-18.066
1790603617.543443,-82.520,-56.641,-58.105,-25.391
1790603617.547280,-94.238,-52.734,-62.988,-52.734
1790603617.551859,16.602,-49.805,-74.707,-61.523
1790603617.555696,72.266,-49.805,-66.406,-43.945
1790603617.559533,-22.949,-62.988,-55.176,9.277
1790603617.563370,-100.098,-73.242,-76.172,-24.414
1790603617.567207,-35.156,-61.523,-84.961,-15.137
1790603617.571044,44.922,-60.059,-86.914,-21.973
1790603617.574882,-53.223,-65.918,-79.590,-50.293
1790603617.578719,-147.949,-59.570,-76.660,-82.031
1790603617.582556,-49.316,-46.875,-81.543,-67.383
1790603617.586393,62.988,-40.039,-62.988,14.648
1790603617.590230,1.953,-45.898,-61.035,-2.930
1790603617.594067,-94.238,-56.152,-79.590,-66.895
1790603617.599160,-60.547,-49.805,-82.520,-90.332
1790603617.602998,38.086,-46.387,-71.289,9.277
1790603617.606836,34.180,-61.523,-76.660,19.531
1790603617.610675,-73.242,-61.523,-90.820,-97.656
1790603617.614513,-83.984,-52.246,-83.496,-6.836
1790603617.618351,13.184,-53.711,-62.988,74.219
1790603617.622190,48.828,-49.316,-60.547,53.223
1790603617.626028,-41.504,-38.574,-70.312,25.879
1790603617.629866,-81.055,-40.527,-62.012,-8.789
1790603617.633705,8.301,-43.945,-52.246,10.254
1790603617.637543,95.215,-31.738,-53.711,27.344
1790603617.641381,20.996,-27.344,-49.805,-32.227
1790603617.646321,-68.848,-33.203,-32.227,-37.109
1790603617.650161,-21.484,-38.574,-28.809,11.719
1790603617.654000,74.219,-42.969,-56.152,-4.395
1790603617.657839,50.781,-40.039,-62.500,-15.137
1790603617.661679,-59.082,-38.086,-55.176,-1.953
1790603617.665518,-56.641,-34.180,-42.969,0.000
1790603617.669358,48.340,-35.156,-36.133,-20.020
1790603617.673197,47.852,-40.527,-32.227,0.977
1790603617.677036,-51.758,-37.109,-29.297,16.113
1790603617.680876,-62.500,-30.273,-36.621,-11.719
1790603617.684715,29.297,-29.297,-37.109,13.672
1790603617.688555,84.961,-43.945,-34.180,32.227
1790603617.693364,0.000,-48.340,-49.805,-15.625
1790603617.697204,0.000,-41.016,-49.316,-12.695
1790603617.701044,0.000,-33.203,-42.969,-7.324
1790603617.704885,0.000,-22.949,-28.809,-27.832
1790603617.708725,0.000,-30.273,-32.227,-22.461
1790603617.712565,0.000,-35.156,-59.082,-7.812
1790603617.716406,0.000,-35.645,-56.152,-8.301
1790603617.720246,0.000,-38.574,-52.246,-20.020
1790603617.724087,0.000,-37.598,-45.898,4.883
1790603617.727927,0.000,-36.133,-53.711,-10.742
1790603617.731767,0.000,-34.180,-63.965,-78.125
1790603617.735608,0.000,-24.902,-53.223,-57.129
1790603617.740319,79.590,-28.320,-24.414,57.617
1790603617.744160,-44.922,-38.086,-21.484,41.016
1790603617.748001,-97.656,-36.133,-34.180,-19.531
1790603617.751842,3.418,-33.203,-45.410,-2.930
1790603617.755683,84.473,-30.762,-39.062,39.062
1790603617.759525,-9.277,-27.832,-26.855,33.203
1790603617.763366,-96.680,-39.551,-41.504,-17.578
1790603617.767207,-26.855,-45.410,-35.156,-21.973
1790603617.771048,82.031,-41.016,-39.551,-13.184
1790603617.774889,25.879,-52.246,-59.570,-13.672
1790603617.778731,-81.543,-53.223,-51.270,5.371
1790603617.782572,-44.434,-44.434,-51.270,-10.254
1790603617.787208,51.758,-41.504,-54.688,-30.762
1790603617.791050,31.250,-44.922,-54.688,-33.203
1790603617.794892,-53.711,-34.180,-39.551,2.441
1790603617.798733,-44.922,-12.207,-41.016,-10.742
1790603617.802576,37.109,-31.250,-56.641,-25.391
1790603617.806417,62.988,-51.758,-53.223,24.902
1790603617.810259,-27.832,-34.180,-53.223,-17.090
1790603617.814101,-68.359,-26.367,-50.293,-17.578
1790603617.817943,-6.348,-27.344,-35.156,28.320
1790603617.821785,67.871,-27.832,-38.574,8.301
1790603617.825627,17.090,-29.297,-45.410,3.418
1790603617.829469,-79.590,-27.832,-37.598,-11.230
1790603617.834041,-26.855,-13.672,-41.992,7.812
1790603617.837884,67.383,-18.555,-57.617,41.992
1790603617.841727,26.367,-36.621,-60.059,-1.953
1790603617.845569,-72.266,-23.438,-55.664,-48.340
1790603617.849412,-62.012,-21.973,-49.805,-36.133
1790603617.853254,49.805,-25.391,-38.574,-24.414
1790603617.857097,61.523,-24.902,-31.738,-27.344
1790603617.860940,-60.547,-37.109,-52.246,4.395
1790603617.864782,-96.191,-49.805,-58.594,32.227
1790603617.868625,7.324,-42.969,-44.922,32.715
1790603617.872468,68.848,-33.203,-55.176,6.348
1790603617.876310,-12.207,-28.320,-51.270,-41.504
1790603617.880805,-77.637,-29.297,-46.387,-29.297
1790603617.884648,1.465,-28.809,-46.387,11.230
1790603617.888491,97.168,-27.832,-41.992,32.715
1790603617.892334,19.043,-33.691,-43.945,-6.836
1790603617.896178,-76.172,-27.344,-55.176,-38.574
1790603617.900021,-18.555,-22.949,-59.082,7.812
1790603617.903864,97.168,-28.809,-46.875,41.992
1790603617.907707,52.734,-34.668,-40.527,20.996
1790603617.911551,-79.102,-31.738,-57.129,-46.387
1790603617.915394,-66.895,-33.691,-55.176,-41.016
1790603617.919237,45.410,-28.320,-36.133,22.461
1790603617.923080,62.012,-20.996,-38.086,13.184
1790603617.927535,-41.016,-21.973,-39.551,-11.230
1790603617.931379,-65.430,-20.996,-36.133,-11.230
1790603617.935222,31.250,-14.160,-38.574,-20.508
1790603617.939066,90.332,-11.719,-49.316,8.789
1790603617.942910,5.371,-19.043,-48.828,33.691
1790603617.946754,-59.082,-20.508,-46.875,-14.648
1790603617.950598,-1.953,-22.949,-58.594,-23.926
1790603617.954441,78.613,-28.809,-62.988,-12.207
1790603617.958285,28.809,-25.879,-46.875,-38.086
1790603617.962129,-78.613,-38.086,-45.410,-36.621
1790603617.965973,-47.852,-39.062,-45.410,-0.488
1790603617.969816,53.223,-30.273,-55.664,12.695
1790603617.974658,40.527,-33.203,-75.195,8.789
1790603617.978503,-65.918,-36.133,-67.871,-5.371
1790603617.982348,-70.801,-27.344,-54.688,-21.484
1790603617.986192,46.387,-13.672,-48.340,-11.719
1790603617.990037,72.754,-28.809,-44.434,0.488
1790603617.993882,-41.992,-41.504,-51.270,-15.137
1790603617.997726,-101.562,-44.434,-62.988,-50.781
1790603618.001571,-11.230,-43.457,-61.035,-39.062
1790603618.005416,75.684,-26.855,-56.641,11.719
1790603618.009260,-3.906,-31.250,-60.059,-22.461
1790603618.013105,-97.168,-42.480,-76.660,-64.941
1790603618.016950,-27.344,-24.414,-64.453,-20.020
1790603618.021730,85.938,-22.461,-44.922,26.855
1790603618.025575,36.621,-40.527,-54.199,2.930
1790603618.029421,-76.660,-41.016,-63.965,-23.438
1790603618.033267,-59.570,-35.156,-53.711,-15.625
1790603618.037112,45.898,-39.551,-49.805,-3.906
1790603618.040957,45.410,-43.945,-56.152,-24.414
1790603618.044803,-66.895,-36.133,-60.059,-92.285
1790603618.048649,-84.961,-26.855,-48.828,-33.203
1790603618.052494,27.832,-31.738,-41.016,51.758
1790603618.056340,71.289,-42.480,-65.430,3.418
1790603618.060185,-48.828,-46.387,-85.938,-34.180
1790603618.064031,-112.793,-41.504,-62.012,-2.441
1790603618.068773,-20.020,-43.457,-39.062,2.441
1790603618.072619,39.551,-49.316,-51.270,0.977
1790603618.076465,-31.738,-42.969,-66.895,-37.109
1790603618.080312,-104.980,-41.504,-59.570,-49.316
1790603618.084158,-44.434,-33.691,-48.340,-7.324
1790603618.088004,73.730,-31.738,-45.898,15.137
1790603618.091851,34.180,-37.598,-52.734,21.484
1790603618.095697,-71.289,-31.738,-59.082,-17.090
1790603618.099543,-50.293,-32.227,-59.570,-27.832
1790603618.103390,45.410,-44.434,-62.988,-24.414
1790603618.107236,67.383,-39.062,-55.664,-47.363
1790603618.111082,-42.969,-25.391,-46.387,-31.738
1790603618.115702,-83.008,-23.926,-56.641,-20.020
1790603618.119549,25.879,-24.414,-48.828,8.789
1790603618.123396,74.707,-26.367,-44.434,15.625
1790603618.127243,-7.812,-25.391,-49.805,-6.348
1790603618.131090,-62.500,-20.508,-44.922,-16.602
1790603618.134937,17.090,-14.648,-39.551,13.184
1790603618.138784,109.863,-6.836,-36.133,60.547
1790603618.142631,51.270,-0.488,-34.180,47.852
1790603618.146478,-45.410,-7.812,-21.973,21.973
1790603618.150325,-22.461,-3.418,-20.508,-1.465
1790603618.154172,92.773,0.488,-24.414,38.086
1790603618.158019,84.961,-3.906,-14.160,47.363
1790603618.162592,-43.945,-2.930,-4.395,21.484
1790603618.166439,-47.363,0.488,0.000,37.109
1790603618.170287,77.637,7.812,-10.254,62.012
1790603618.174135,114.746,11.719,-10.254,68.848
1790603618.177982,2.930,2.930,-9.766,20.020
1790603618.181830,-48.828,-0.488,-6.836,22.461
1790603618.185678,37.598,-6.836,-12.695,37.598
1790603618.189525,114.746,-13.184,-22.949,26.367
1790603618.193373,24.902,-11.719,-27.832,21.973
1790603618.197221,-56.152,-25.879,-20.996,22.461
1790603618.201068,17.090,-22.461,-6.348,41.016
1790603618.204916,111.816,-21.484,-20.508,47.363
1790603618.209879,58.594,-17.578,-34.180,20.020
1790603618.213727,-49.316,-20.020,-39.551,4.883
1790603618.217576,-29.297,-38.086,-38.574,5.371
1790603618.221425,81.055,-29.297,-18.555,32.227
1790603618.225273,66.895,-26.855,-14.160,34.668
1790603618.229122,-50.781,-29.785,-35.156,-2.930
1790603618.232970,-56.641,-25.391,-28.809,6.836
1790603618.236819,46.875,-27.344,-20.508,41.504
1790603618.240668,79.102,-30.762,-40.527,29.297
1790603618.244516,-5.859,-18.066,-37.598,-1.953
1790603618.248365,-55.664,-21.973,-31.738,-7.812
1790603618.252213,17.578,-44.434,-41.992,-1.953
1790603618.256681,104.004,-40.527,-45.410,25.391
1790603618.260530,32.227,-32.227,-38.086,26.367
1790603618.264379,-48.828,-34.180,-34.180,-3.906
1790603618.268229,1.953,-34.180,-33.691,25.391
1790603618.272078,98.145,-22.949,-32.227,39.551
1790603618.275927,63.477,-16.113,-33.203,14.160
1790603618.279776,-33.691,-23.438,-25.879,6.348
1790603618.283625,-20.508,-31.250,-39.551,-10.742
1790603618.287474,69.336,-40.039,-58.594,8.301
1790603618.291323,85.449,-34.180,-33.691,49.316
1790603618.295172,-2.441,-32.227,-21.973,37.109
1790603618.299021,-35.645,-33.691,-47.363,22.949
1790603618.303426,66.406,-26.855,-35.645,32.715
1790603618.307275,125.977,-24.414,-21.484,41.992
1790603618.311125,22.461,-14.648,-31.250,3.418
1790603618.314974,-64.453,-25.879,-25.391,13.184
1790603618.318824,8.301,-33.203,-27.344,48.828
1790603618.322674,92.285,-33.203,-36.621,61.035
1790603618.326523,14.160,-45.898,-43.457,24.414
1790603618.330373,-62.012,-44.434,-47.852,-26.367
1790603618.334222,-8.301,-35.645,-30.273,-7.812
1790603618.338072,97.168,-24.414,-14.648,54.199
1790603618.341922,69.824,-18.066,-28.320,36.621
1790603618.345771,-50.293,-29.297,-48.828,9.766
1790603618.350514,-42.969,-33.203,-45.898,24.414
1790603618.354364,68.359,-32.227,-33.691,19.043
1790603618.358215,92.285,-29.297,-37.598,17.090
1790603618.362065,-14.648,-28.809,-49.805,27.344
1790603618.365915,-50.293,-34.668,-30.273,21.484
1790603618.369766,35.156,-41.504,-25.391,17.578
1790603618.373616,85.938,-58.105,-42.480,21.484
1790603618.377466,-2.441,-61.523,-43.457,3.418
1790603618.381316,-68.359,-39.551,-39.551,-8.789
1790603618.385167,-8.301,-39.551,-37.109,17.578
1790603618.389017,54.688,-56.152,-44.922,37.109
1790603618.392868,1.953,-60.547,-40.039,5.371
1790603618.397677,-90.820,-61.035,0.000,-9.277
1790603618.401528,-58.594,-60.059,0.000,-19.531
1790603618.405380,64.941,-52.734,0.000,-15.137
1790603618.409231,62.012,-53.223,0.000,23.926
1790603618.413082,-47.852,-61.035,0.000,23.926
1790603618.416933,-57.617,-51.270,0.000,-11.230
1790603618.420784,29.297,-50.781,0.000,-9.766
1790603618.424635,52.246,-57.129,0.000,3.906
1790603618.428486,-45.410,-50.781,0.000,4.883
1790603618.432338,-83.008,-48.340,0.000,-3.906
1790603618.436189,-11.230,-58.594,0.000,-10.254
1790603618.440040,67.383,-58.594,0.000,20.508
1790603618.444683,-0.977,-58.105,-53.223,-3.418
1790603618.448534,-89.355,-62.012,-58.594,-35.645
1790603618.452386,-35.645,-61.035,-60.547,-33.691
1790603618.456238,73.242,-51.758,-56.152,15.137
1790603618.460090,51.758,-43.457,-45.410,45.898
1790603618.463942,-52.734,-46.875,-45.898,0.000
1790603618.467793,-37.598,-46.875,-43.457,-14.160
1790603618.471645,61.035,-47.363,-55.664,4.395
1790603618.475497,60.547,-47.363,-56.641,6.836
1790603618.479349,-45.410,-53.223,-57.129,-20.996
1790603618.483200,-65.430,-58.105,-68.848,-6.836
1790603618.487052,36.621,-54.688,-54.688,35.645
1790603618.491622,73.242,-55.176,-50.781,28.320
1790603618.495475,-30.762,-53.223,-62.988,-9.277
1790603618.499327,-80.566,-47.852,-57.617,-2.930
1790603618.503179,2.930,-48.340,-59.570,16.113
1790603618.507032,80.078,-48.340,-59.082,21.484
1790603618.510884,7.324,-59.082,-56.641,-7.324
1790603618.514736,-74.219,-59.082,-65.430,-40.039
1790603618.518589,-27.832,-50.293,-56.152,-13.184
1790603618.522441,74.219,-45.898,-47.852,31.738
1790603618.526293,40.039,-48.828,-63.965,9.766
1790603618.530146,-57.129,-50.781,-55.176,-21.484
1790603618.533998,-49.805,-46.875,-40.039,5.859
1790603618.538517,53.223,-50.781,-52.734,37.109
1790603618.542369,71.289,-38.574,-60.547,19.531
1790603618.546222,-42.969,-44.922,-53.223,-20.996
1790603618.550075,-81.543,-67.871,-60.547,-43.945
1790603618.553928,26.855,-60.059,-62.012,-6.836
1790603618.557781,83.984,-53.711,-50.293,19.043
1790603618.561634,-12.695,-54.688,-50.293,-18.066
1790603618.565487,-71.289,-47.852,-37.109,-13.184
1790603618.569340,1.953,-43.457,-33.691,15.625
1790603618.573193,95.703,-36.621,-37.109,51.270
1790603618.577045,34.180,-37.109,-49.805,30.273
1790603618.580898,-69.824,-44.922,-56.641,7.324
1790603618.585364,-24.902,-44.922,-53.711,12.207
1790603618.589218,86.426,-43.457,-47.852,14.648
1790603618.593071,58.594,-50.293,-37.598,49.316
1790603618.596925,-52.734,-55.176,-31.738,28.809
1790603618.600778,-49.316,-55.664,-30.762,9.277
1790603618.604631,61.035,-55.176,-34.668,26.855
1790603618.608485,86.914,-51.270,-39.551,13.672
1790603618.612338,-28.809,-50.293,-41.504,-19.531
1790603618.616191,-79.590,-58.594,-42.969,-40.527
1790603618.620045,20.996,-61.035,-40.527,-3.906
1790603618.623898,83.984,-52.246,-38.574,31.250
1790603618.627751,-13.672,-42.969,-38.086,8.789
1790603618.632140,-92.773,-32.715,-33.203,-5.859
1790603618.635993,-23.926,-35.156,-37.598,4.395
1790603618.639847,79.102,-44.922,-54.688,2.441
1790603618.643701,26.855,-36.621,-55.664,-4.883
1790603618.647555,-80.566,-38.574,-57.129,-30.762
1790603618.651409,-38.574,-58.105,-53.223,-29.297
1790603618.655262,85.938,-53.711,-33.203,36.133
1790603618.659116,80.078,-41.016,-35.156,34.180
1790603618.662970,-38.574,-47.852,-47.363,-0.488
1790603618.666824,-58.594,-54.688,-50.293,-8.789
1790603618.670678,52.246,-41.992,-50.781,-5.371
1790603618.674531,83.008,-30.273,-46.387,0.488
1790603618.678897,0.000,-34.180,-44.434,3.418
1790603618.682751,0.000,-51.270,-38.574,-10.254
1790603618.686605,0.000,-45.898,-30.273,9.277
1790603618.690459,0.000,-32.227,-45.898,11.719
1790603618.694314,0.000,-39.551,-60.547,-26.367
1790603618.698168,0.000,-46.387,-49.805,-33.203
1790603618.702022,0.000,-46.387,-51.270,-9.766
1790603618.705876,0.000,-37.598,-60.059,9.766
1790603618.709730,0.000,-44.434,-60.547,-2.930
1790603618.713585,0.000,-47.363,-40.527,-9.766
1790603618.717439,0.000,-48.340,-36.621,-18.066
1790603618.721293,0.000,-52.246,-52.246,-6.836
1790603618.724908,-34.668,-47.363,0.000,11.719
1790603618.728761,-83.496,-45.410,0.000,-15.625
1790603618.732615,3.418,-46.387,0.000,-46.387
1790603618.736470,69.824,-47.363,0.000,-30.762
1790603618.740324,-14.648,-41.016,0.000,-3.418
1790603618.744178,-97.168,-38.574,0.000,-7.324
1790603618.748032,-39.062,-61.035,0.000,-27.832
1790603618.751886,71.289,-68.359,0.000,-38.086
1790603618.755740,37.598,-58.105,0.000,4.883
1790603618.759593,-64.941,-51.270,0.000,4.883
1790603618.763448,-49.805,-41.992,0.000,-21.484
1790603618.767302,47.363,-31.738,0.000,2.930
1790603618.770895,38.086,-48.828,-76.660,7.324
1790603618.774749,-79.590,-64.453,-72.266,-21.973
1790603618.778603,-101.562,-50.781,-63.477,-31.738
1790603618.782457,9.277,-54.199,-53.711,-18.555
1790603618.786310,70.801,-56.152,-50.293,8.301
1790603618.790164,-29.785,-47.363,-55.176,15.625
1790603618.794018,-105.957,-41.016,-51.270,-19.531
1790603618.797872,-28.320,-54.688,-66.406,-25.879
1790603618.801726,72.266,-69.824,-75.195,11.719
1790603618.805579,13.672,-68.848,-60.547,26.855
1790603618.809433,-82.031,-65.918,-52.246,-25.879
1790603618.813287,-35.645,-69.824,-62.988,-65.430
1790603618.817894,-54.199,-80.078,-76.660,-42.480
1790603618.821749,44.922,-72.754,-64.453,8.789
1790603618.825603,3.906,-71.777,-47.852,11.719
1790603618.829458,-85.449,-73.730,-46.875,-5.859
1790603618.833312,-69.824,-76.172,-51.270,-10.254
1790603618.837166,39.062,-76.660,-54.199,4.883
1790603618.841021,30.762,-60.059,-54.688,-4.395
1790603618.844875,-79.590,-61.523,-52.246,-36.133
1790603618.848729,-81.543,-71.777,-49.316,-15.625
1790603618.852584,21.484,-72.266,-57.129,7.324
1790603618.856438,48.340,-63.477,-54.199,1.465
1790603618.860292,-56.152,-65.430,-37.598,-12.695
1790603618.864888,-110.352,-76.660,-40.039,-16.113
1790603618.868743,-13.184,-74.707,-52.246,-10.742
1790603618.872598,62.500,-61.523,-53.223,-5.371
1790603618.876453,-23.438,-53.223,-43.457,-10.742
1790603618.880308,-86.914,-62.500,-43.457,-19.043
1790603618.884163,-25.879,-70.312,-61.523,-15.625
1790603618.888018,59.570,-70.312,-58.105,1.465
1790603618.891873,12.207,-63.477,-41.504,-6.348
1790603618.895728,-84.961,-59.570,-51.270,-43.457
1790603618.899583,-59.570,-63.965,-68.359,-48.828
1790603618.903438,53.711,-68.848,-63.477,2.930
1790603618.907292,50.781,-66.895,-54.199,1.953
1790603618.911837,0.000,-55.176,-56.152,-22.461
1790603618.915693,0.000,-41.016,-30.762,8.789
1790603618.919548,0.000,-41.016,-17.578,25.391
1790603618.923404,0.000,-43.945,-52.246,14.648
1790603618.927259,0.000,-45.410,-62.012,-7.324
1790603618.931115,0.000,-51.758,-62.500,-24.414
1790603618.934970,0.000,-45.410,-65.430,-1.465
1790603618.938825,0.000,-40.527,-56.152,8.789
1790603618.942681,0.000,-29.785,-44.922,2.441
1790603618.946536,0.000,-23.438,-37.598,0.000
1790603618.950392,0.000,-28.320,-28.320,12.207
1790603618.954247,0.000,-30.273,-33.691,39.062
1790603618.957748,-61.035,-22.461,-39.551,28.809
1790603618.961603,-54.688,-19.531,-46.875,-4.395
1790603618.965458,55.176,-17.090,-49.316,12.695
1790603618.969313,88.379,-17.578,-40.039,49.316
1790603618.973169,-14.160,-20.508,-41.992,41.504
1790603618.977024,-71.777,-17.090,-33.203,20.508
1790603618.980879,4.395,-14.160,-18.555,20.996
1790603618.984734,80.078,-14.160,-23.438,44.922
1790603618.988589,13.184,-15.137,-41.992,43.457
1790603618.992445,-65.918,-8.789,-42.969,28.320
1790603618.996300,-6.836,-4.883,-30.762,35.156
1790603619.000155,89.355,-10.254,-27.344,62.012
1790603619.004593,103.027,-16.113,-26.367,64.941
1790603619.008448,47.363,-11.230,-12.207,27.344
1790603619.012304,-40.527,-9.277,-15.137,14.648
1790603619.016160,5.371,-5.859,-16.113,52.734
1790603619.020015,104.492,-11.230,-31.738,43.457
1790603619.023871,70.801,-20.996,-45.898,28.809
1790603619.027726,-20.508,-21.973,-29.297,27.832
1790603619.031582,-22.949,-15.137,-30.273,24.414
1790603619.035438,71.777,-14.160,-28.320,38.574
1790603619.039293,97.168,-29.785,-24.902,51.758
1790603619.043149,-13.672,-35.156,-35.645,15.625
1790603619.047004,-58.105,-30.762,-38.086,-27.344
1790603619.051741,39.062,-27.344,-29.785,4.883
1790603619.055597,98.145,-25.879,-36.621,48.828
1790603619.059454,7.812,-27.344,-44.434,42.969
1790603619.063310,-67.383,-30.762,-40.527,20.020
1790603619.067166,9.766,-19.531,-27.344,23.438
1790603619.071022,120.117,-12.207,-25.879,49.805
1790603619.074879,63.477,-21.484,-45.898,29.297
1790603619.078735,-44.434,-24.902,-46.387,4.395
1790603619.082591,-7.324,-29.785,-39.062,25.879
1790603619.086447,106.934,-30.273,-44.434,41.992
1790603619.090304,83.984,-27.832,-54.688,29.297
1790603619.094160,-39.062,-37.109,-53.223,10.742
1790603619.098847,-34.180,-29.297,-37.598,5.859
1790603619.102704,70.312,-32.227,-36.621,25.879
1790603619.106560,93.750,-50.781,-50.781,25.391
1790603619.110417,-13.672,-50.293,-47.363,6.348
1790603619.114274,-59.082,-41.016,-38.086,22.949
1790603619.118131,23.438,-37.109,-47.852,29.297
1790603619.121988,98.145,-41.992,-41.992,18.555
1790603619.125845,25.391,-42.480,-34.668,-0.977
1790603619.129702,-72.754,-39.551,-55.176,-20.020
1790603619.133559,-25.879,-51.270,-61.035,-25.391
1790603619.137415,69.824,-48.828,-52.246,10.742
1790603619.141272,30.273,-37.598,-46.875,23.438
1790603619.145893,-70.312,-41.992,-47.852,-14.160
1790603619.149750,-50.781,-38.574,-44.922,-0.488
1790603619.153608,51.758,-36.621,-43.457,40.527
1790603619.157465,61.035,-41.504,-46.387,36.133
1790603619.161323,-43.945,-40.527,-46.875,-15.625
1790603619.165180,-73.242,-33.203,-31.250,-1.465
1790603619.169037,23.438,-40.039,-38.086,33.691
1790603619.172895,78.125,-51.758,-49.805,16.113
1790603619.176752,-0.488,-50.293,-31.738,12.207
1790603619.180609,-80.078,-51.270,-40.527,-34.180
1790603619.184467,-29.785,-47.852,-49.805,-41.016
1790603619.188324,63.965,-45.410,-38.086,17.578
1790603619.193255,-20.020,-51.758,-47.363,-26.855
1790603619.197114,-122.070,-48.828,-48.340,-73.730
1790603619.200972,-76.172,-44.434,-38.086,-31.250
1790603619.204830,23.438,-49.805,-42.969,-31.250
1790603619.208688,-11.719,-66.895,-56.641,-59.570
1790603619.212546,-118.652,-74.707,-49.316,-55.176
1790603619.216404,-98.145,-54.199,-28.320,-25.391
1790603619.220262,18.555,-44.922,-43.457,-42.480
1790603619.224120,41.016,-57.129,-57.129,-44.434
1790603619.227979,-68.848,-49.805,-46.875,-15.625
1790603619.231837,-98.633,-44.434,-51.758,-33.203
1790603619.235695,-3.906,-44.922,-54.199,-2.441
1790603619.240194,47.363,-41.504,-55.176,-4.395
1790603619.244053,-38.086,-49.805,-46.387,-47.852
1790603619.247911,-104.004,-56.152,-41.992,-26.855
1790603619.251770,-36.133,-56.641,-60.059,-6.348
1790603619.255629,52.734,-55.664,-59.082,9.766
1790603619.259487,-8.789,-55.176,-47.363,-16.113
1790603619.263346,-102.539,-49.316,-47.363,-50.781
1790603619.267204,-55.664,-33.691,-44.434,-22.461
1790603619.271063,47.852,-37.598,-49.316,2.930
1790603619.274921,40.039,-46.387,-59.570,-17.090
1790603619.278780,-62.988,-51.270,-53.223,-50.293
1790603619.282639,-75.195,-59.082,-49.805,-40.039
1790603619.287143,0.000,-53.223,-59.082,-14.648
1790603619.291002,0.000,-51.758,-61.035,-0.977
1790603619.294861,0.000,-47.363,-48.340,-2.441
1790603619.298720,0.000,-43.945,-49.316,-21.973
1790603619.302579,0.000,-41.504,-61.523,-42.969
1790603619.306438,0.000,-41.992,-68.359,-7.324
1790603619.310297,0.000,-29.785,-53.223,-11.230
1790603619.314157,0.000,-19.531,-31.250,-35.156
1790603619.318016,0.000,-49.805,-61.035,3.418
1790603619.321875,0.000,-56.641,-89.355,0.000
1790603619.325734,0.000,-42.969,-70.801,-31.738
1790603619.329593,0.000,-41.992,-50.781,-17.090
1790603619.334038,-62.500,-47.852,-52.734,1.953
1790603619.337898,39.062,-49.805,-61.035,13.672
1790603619.341757,35.156,-55.664,-69.336,-3.906
1790603619.345617,-65.918,-51.758,-59.570,-29.297
1790603619.349476,-81.543,-38.574,-50.781,-14.160
1790603619.353336,24.414,-42.480,-74.219,7.812
1790603619.357195,73.730,-42.969,-72.754,15.137
1790603619.361055,-32.227,-38.574,-56.641,-15.137
1790603619.364914,-98.633,-47.852,-59.570,-30.762
1790603619.368773,-7.324,-53.223,-66.895,-19.531
1790603619.372633,79.102,-50.293,-71.777,-16.113
1790603619.376493,8.301,-51.758,-75.684,-26.855
1790603619.380876,-77.148,-47.363,-64.941,-19.043
1790603619.384735,-18.066,-30.762,-59.570,13.672
1790603619.388595,93.262,-23.926,-63.477,54.688
1790603619.392455,24.414,-44.434,-57.617,-12.695
1790603619.396315,-106.445,-54.199,-50.293,-76.172
1790603619.400175,-84.473,-51.758,-51.758,-51.758
1790603619.404034,17.578,-57.129,-41.504,-1.465
1790603619.407894,29.785,-59.082,-41.016,-4.395
1790603619.411754,-83.984,-65.918,-52.246,-53.711
1790603619.415614,-113.770,-65.430,-45.898,-46.875
1790603619.419474,-1.465,-61.523,-33.203,-4.883
1790603619.423333,48.828,-66.895,-40.527,5.371
1790603619.427676,-51.270,-59.570,-33.691,12.695
1790603619.431536,-103.516,-58.594,-23.438,-20.020
1790603619.435397,-30.762,-75.195,-38.574,-68.848
1790603619.439257,49.805,-79.590,-47.363,-26.855
1790603619.443117,0.000,-71.289,-36.621,14.648
1790603619.446977,-79.102,-62.500,-26.855,3.906
1790603619.450837,-38.086,-58.105,-24.902,18.555
1790603619.454697,65.918,-52.246,-32.227,0.000
1790603619.458558,39.062,-48.340,-37.109,-10.742
1790603619.462418,-73.730,-50.781,-50.781,-29.785
1790603619.466278,-65.430,-60.059,-58.105,-42.480
1790603619.470138,49.316,-58.105,-38.086,24.902
1790603619.474788,0.000,-54.199,-31.250,58.594
1790603619.478648,0.000,-62.500,-41.016,6.348
1790603619.482509,0.000,-64.941,-49.805,-24.414
1790603619.486370,0.000,-65.430,-50.293,-8.789
1790603619.490231,0.000,-61.523,-50.293,-10.742
1790603619.494091,0.000,-57.617,-48.828,-24.414
1790603619.497952,0.000,-57.129,-53.711,-31.738
1790603619.501812,0.000,-56.152,-63.965,-44.434
1790603619.505673,0.000,-48.828,-63.965,-25.879
1790603619.509534,0.000,-54.199,-67.871,8.301
1790603619.513394,0.000,-64.941,-78.613,0.977
1790603619.517255,0.000,-53.223,-85.938,-18.555
1790603619.521816,62.012,-46.387,-89.844,3.906
1790603619.525677,51.270,-55.664,-101.562,1.953
1790603619.529538,-73.242,-64.941,-109.863,-20.508
1790603619.533399,-88.867,-57.129,-109.375,-35.645
1790603619.537261,18.066,-49.805,-110.352,5.859
1790603619.541121,63.477,-46.387,-100.586,35.645
1790603619.544983,-33.203,-35.645,-88.379,-23.926
1790603619.548844,-95.215,-44.922,-86.914,-20.508
1790603619.552705,-6.348,-56.152,-91.309,35.156
1790603619.556566,85.938,-51.270,-98.145,35.645
1790603619.560427,1.465,-43.457,-94.238,-25.879
1790603619.564288,-91.797,-45.898,-92.285,-43.457
1790603619.568793,-54.199,-56.641,-101.074,-9.766
1790603619.572654,25.879,-62.012,-104.004,0.977
1790603619.576516,3.906,-61.035,-99.121,1.953
1790603619.580377,-81.055,-49.316,-93.262,-21.484
1790603619.584239,-78.125,-53.223,-87.891,-18.555
1790603619.588100,31.250,-59.570,-94.238,-28.809
1790603619.591962,52.734,-49.805,-81.543,8.789
1790603619.595824,-61.035,-49.805,-65.918,6.836
1790603619.599685,-71.777,-45.410,-82.031,-35.156
1790603619.603547,22.461,-40.039,-95.215,34.668
1790603619.607408,62.500,-45.410,-87.402,37.598
1790603619.611270,-28.809,-52.246,-76.172,-16.602
1790603619.615769,0.000,-50.781,-81.543,-15.625
1790603619.619631,0.000,-54.199,-83.496,11.230
1790603619.623493,0.000,-51.270,-68.848,1.953
1790603619.627355,0.000,-39.062,-55.176,-12.695
1790603619.631217,0.000,-43.945,-57.129,-20.508
1790603619.635079,0.000,-44.434,-70.801,-1.953
1790603619.638941,0.000,-43.457,-77.637,24.414
1790603619.642803,0.000,-31.738,-64.941,-5.859
1790603619.646665,0.000,-31.250,-50.781,10.254
1790603619.650527,0.000,-44.434,-62.012,1.465
1790603619.654389,0.000,-41.504,-67.383,2.930
1790603619.658251,0.000,-46.387,-62.988,2.441
1790603619.662703,-48.828,-47.852,-67.383,-8.789
1790603619.666565,-81.055,-45.410,-84.473,-10.742
1790603619.670427,15.137,-46.875,-88.379,0.000
1790603619.674290,83.984,-46.875,-69.336,14.648
1790603619.678152,-7.324,-41.504,-59.082,-15.625
1790603619.682014,-90.820,-37.109,-50.781,-30.273
1790603619.685877,-12.695,-31.738,-47.363,-1.953
1790603619.689739,83.496,-33.203,-43.945,29.297
1790603619.693601,-1.465,-50.781,-71.777,-21.973
1790603619.697464,-94.727,-64.453,-87.891,-58.594
1790603619.701326,-18.066,-54.688,-70.801,6.836
1790603619.705189,86.914,-44.434,-69.824,38.574
1790603619.709599,0.000,-43.945,-71.289,-7.324
1790603619.713461,0.000,-28.809,-63.477,-23.926
1790603619.717324,0.000,-25.391,-62.500,-21.484
1790603619.721187,0.000,-25.879,-76.172,-27.832
1790603619.725049,0.000,-13.672,-70.801,-16.113
1790603619.728912,0.000,-7.324,-60.059,-25.391
1790603619.732775,0.000,-11.230,-59.570,-35.645
1790603619.736637,0.000,-9.277,-68.359,-11.719
1790603619.740500,0.000,2.930,-77.148,-6.836
1790603619.744363,0.000,2.441,-71.289,-0.977
1790603619.748226,0.000,0.488,-67.383,1.953
1790603619.752088,0.000,-0.977,-69.824,-3.906
1790603619.756424,83.008,-2.930,-71.777,-9.766
1790603619.760287,52.246,-1.465,-59.570,4.883
1790603619.764150,-59.570,-11.230,-66.406,-4.395
1790603619.768013,-42.969,-15.625,-68.359,-14.648
1790603619.771876,78.125,-2.930,-50.293,27.344
1790603619.775739,79.102,2.930,-61.523,11.719
1790603619.779602,-39.551,-6.348,-62.988,-13.184
1790603619.783465,-56.641,-1.953,-48.340,15.625
1790603619.787328,49.805,1.465,-50.293,7.324
1790603619.791191,98.633,-4.883,-47.363,-6.836
1790603619.795054,-17.090,-17.090,-52.734,-28.320
1790603619.798917,-75.195,-16.602,-52.246,-7.812
1790603619.803186,27.832,-7.812,-41.504,30.273
1790603619.807049,99.609,-8.789,-38.574,19.531
1790603619.810912,10.742,0.000,-42.480,3.418
1790603619.814775,-64.453,0.977,-37.109,-7.324
1790603619.818639,-10.742,-8.301,-41.016,-11.719
1790603619.822502,75.195,-15.625,-49.805,4.883
1790603619.826365,39.062,-29.297,-49.316,3.906
1790603619.830229,-69.336,-35.156,-54.688,-27.832
1790603619.834092,-50.781,-38.086,-58.594,-25.391
1790603619.837955,74.219,-38.086,-47.852,31.738
1790603619.841819,70.801,-37.109,-45.410,49.316
1790603619.845682,-38.574,-41.992,-62.988,-4.883
1790603619.850260,-66.406,-40.527,-62.500,-13.672
1790603619.854124,13.672,-46.875,-59.570,27.832
1790603619.857987,69.336,-50.781,-62.012,19.043
1790603619.861851,-11.230,-43.457,-57.617,-20.996
1790603619.865715,-75.684,-40.527,-56.152,-40.527
1790603619.869579,-20.508,-47.363,-56.641,-25.391
1790603619.873442,75.684,-48.828,-58.594,27.832
1790603619.877306,15.137,-45.410,-70.801,-12.207
1790603619.881170,-84.961,-46.875,-70.801,-37.109
1790603619.885033,-44.434,-48.828,-69.336,-6.836
1790603619.888897,55.664,-45.898,-66.406,-0.977
1790603619.892761,41.992,-38.574,-49.316,5.859
1790603619.897296,0.000,-47.363,-50.781,-24.902
1790603619.901160,0.000,-57.129,-52.246,-27.344
1790603619.905024,0.000,-48.340,-60.547,11.230
1790603619.908889,0.000,-41.504,-74.219,-2.441
1790603619.912753,0.000,-53.223,-66.895,-34.180
1790603619.916617,0.000,-47.852,-49.805,-25.391
1790603619.920481,0.000,-42.969,-51.270,3.906
1790603619.924345,0.000,-49.316,-68.848,-4.883
1790603619.928209,0.000,-37.598,-64.453,-16.602
1790603619.932073,0.000,-47.363,-55.176,-6.836
1790603619.935938,0.000,-50.293,-52.734,1.953
1790603619.939802,0.000,-42.480,-52.734,15.625
1790603619.944288,18.555,-54.688,-54.199,-10.254
1790603619.948152,-77.148,-57.129,-47.852,-9.277
1790603619.952017,-53.223,-55.176,-60.547,-12.207
1790603619.955882,38.086,-55.176,-59.082,12.207
1790603619.959746,23.926,-57.617,-51.758,16.113
1790603619.963611,-73.242,-58.594,-55.176,-15.625
1790603619.967475,-68.359,-46.387,-58.105,-27.344
1790603619.971340,40.527,-40.039,-42.969,29.297
1790603619.975204,67.871,-50.293,-35.156,36.621
1790603619.979069,-35.645,-49.805,-56.152,-50.293
1790603619.982933,-87.402,-38.086,-57.617,-35.645
1790603619.986798,-6.836,-49.316,-48.340,0.488
1790603619.991242,75.195,-52.246,-44.434,6.836
1790603619.995107,-20.996,-53.711,-49.805,4.395
1790603619.998972,-101.074,-58.594,-49.316,-11.719
1790603620.002837,-33.203,-45.898,-44.434,-13.184
1790603620.006702,69.336,-45.898,-49.316,21.484
1790603620.010566,22.461,-56.641,-54.688,-8.301
1790603620.014431,-89.355,-61.035,-52.246,-29.297
1790603620.018296,-36.621,-47.363,-45.410,19.043
1790603620.022161,59.082,-43.457,-47.363,21.484
1790603620.026026,29.297,-43.945,-66.895,-54.688
1790603620.029891,-60.059,-34.180,-64.453,-61.523
1790603620.033756,-83.496,-43.945,-52.734,-25.391
1790603620.038169,6.348,-34.668,0.000,-4.883
1790603620.042035,49.805,-26.367,0.000,-8.301
1790603620.045900,-56.152,-40.527,0.000,-49.805
1790603620.049765,-106.934,-42.969,0.000,-47.852
1790603620.053630,-18.066,-36.621,0.000,-23.926
1790603620.057495,69.824,-29.785,0.000,6.348
1790603620.061361,1.465,-23.926,0.000,-1.953
1790603620.065226,-74.219,-17.578,0.000,-22.949
1790603620.069091,-35.156,-13.184,0.000,-42.480
1790603620.072956,54.199,-22.949,0.000,-7.812
1790603620.076822,40.039,-31.738,0.000,20.020
1790603620.080687,-64.941,-31.250,0.000,-33.691
1790603620.085085,-61.523,-36.133,-67.871,-41.992
1790603620.088950,42.480,-37.598,-61.523,28.320
1790603620.092816,59.570,-32.715,-60.059,44.434
1790603620.096681,-41.992,-36.621,-69.336,-21.973
1790603620.100547,-70.801,-35.645,-86.426,-59.570
1790603620.104412,20.508,-34.180,-77.148,-14.160
1790603620.108278,83.008,-33.203,-63.477,23.438
1790603620.112144,-22.949,-31.250,-63.477,16.113
1790603620.116009,-101.562,-28.809,-68.359,2.441
1790603620.119874,-4.883,-23.438,-48.828,0.488
1790603620.123740,83.008,-27.832,-52.246,-3.418
1790603620.127606,23.926,-29.297,-72.266,-30.762
1790603620.131933,-59.082,-27.832,-72.266,-44.434
1790603620.135799,-28.320,-38.086,-56.641,8.789
1790603620.139665,84.473,-41.504,-56.641,27.344
1790603620.143531,63.477,-37.109,-64.453,4.395
1790603620.147397,-57.617,-33.203,-56.641,-4.883
1790603620.151263,-59.570,-29.785,-48.340,-12.695
1790603620.155128,45.898,-27.344,-45.898,-2.930
1790603620.158994,73.242,-24.902,-64.941,14.160
1790603620.162860,-36.133,-34.180,-53.223,9.277
1790603620.166726,-84.961,-47.852,-45.898,0.977
1790603620.170592,10.254,-49.316,-75.684,12.695
1790603620.174458,82.031,-38.086,-81.055,15.625
1790603620.178708,1.953,-35.156,-61.523,-19.531
1790603620.182574,-74.219,-38.574,-53.223,-33.691
1790603620.186440,-2.441,-38.086,-48.828,-1.953
1790603620.190306,101.074,-41.504,-46.875,17.578
1790603620.194172,40.039,-47.363,-59.570,-5.371
1790603620.198038,-53.711,-35.645,-52.734,-25.879
1790603620.201904,-35.156,-31.250,-39.551,-3.906
1790603620.205770,60.059,-36.133,-47.363,20.508
1790603620.209636,58.594,-40.039,-57.129,18.066
1790603620.213502,-47.852,-45.898,-54.199,4.883
1790603620.217368,-69.336,-45.410,-37.109,0.977
1790603620.221234,26.367,-41.016,-14.648,-10.742
1790603620.225766,87.891,-32.715,-23.926,3.418
1790603620.229633,-12.207,-30.273,-58.105,3.418
1790603620.233499,-74.707,-34.668,-58.105,4.883
1790603620.237366,15.625,-34.668,-47.363,29.297
1790603620.241232,85.449,-32.715,-43.457,39.062
1790603620.245099,8.789,-43.945,-39.062,41.992
1790603620.248965,-70.801,-49.805,-40.527,-1.953
1790603620.252832,-26.367,-44.434,-46.875,-2.930
1790603620.256698,75.195,-41.016,-44.434,25.391
1790603620.260565,48.828,-46.387,-41.504,27.344
1790603620.264431,-66.895,-50.293,-42.969,4.883
1790603620.268297,-68.848,-56.152,-54.688,-19.531
1790603620.272781,53.223,-52.246,0.000,4.883
1790603620.276648,76.172,-36.133,0.000,25.879
1790603620.280515,-54.199,-46.387,0.000,-12.695
1790603620.284382,-81.055,-50.781,0.000,-3.906
1790603620.288249,14.160,-51.270,0.000,42.969
1790603620.292115,65.430,-50.781,0.000,32.715
1790603620.295982,-10.254,-52.246,0.000,9.277
1790603620.299849,-83.496,-60.059,0.000,-24.414
1790603620.303716,7.324,-46.875,0.000,-27.832
1790603620.307583,93.262,-41.992,0.000,11.719
1790603620.311450,10.254,-54.688,0.000,-3.906
1790603620.315316,-74.219,-50.293,0.000,-12.207
1790603620.319773,-61.035,-56.152,-67.871,3.418
1790603620.323641,44.434,-62.988,-79.102,15.625
1790603620.327508,38.086,-54.199,-79.102,-23.926
1790603620.331375,-79.590,-52.246,-72.754,-26.855
1790603620.335242,-85.449,-58.594,-75.684,-12.695
1790603620.339109,12.695,-65.430,-77.637,-16.113
1790603620.342976,50.293,-72.266,-60.059,13.184
1790603620.346844,-51.270,-66.895,-58.594,-9.766
1790603620.350711,-83.984,-60.547,-65.430,-37.109
1790603620.354578,6.348,-55.664,-63.477,-23.926
1790603620.358445,68.359,-55.176,-72.266,16.113
1790603620.362312,-37.109,-57.129,-77.148,8.789
1790603620.366719,-104.004,-60.547,-64.941,-10.254
1790603620.370586,-13.184,-57.129,-60.547,-4.883
1790603620.374454,70.312,-52.734,-64.453,-8.301
1790603620.378321,5.371,-63.477,-58.105,-8.301
1790603620.382189,-104.492,-70.801,-69.824,-24.414
1790603620.386056,-83.984,-71.777,-81.543,-23.926
1790603620.389924,29.785,-67.383,-63.965,26.855
1790603620.393791,52.734,-54.688,-56.152,34.668
1790603620.397659,-50.781,-50.293,-64.453,6.836
1790603620.401526,-81.543,-49.805,-67.871,-13.184
1790603620.405394,32.227,-41.992,-48.340,14.648
1790603620.409261,67.871,-41.992,-48.828,7.812
1790603620.413624,-40.527,-46.875,-62.012,-14.160
1790603620.417492,-86.914,-48.828,-61.035,-13.184
1790603620.421360,7.812,-43.945,-53.711,7.324
1790603620.425227,97.168,-44.922,-47.852,41.016
1790603620.429095,21.973,-47.363,-55.664,-1.465
1790603620.432963,-66.895,-45.410,-54.199,-21.484
1790603620.436831,-15.137,-47.363,-52.246,-22.949
1790603620.440699,80.566,-60.547,-60.059,9.766
1790603620.444566,29.785,-62.012,-70.312,7.812
1790603620.448434,-82.520,-51.758,-66.406,-34.668
1790603620.452302,-46.875,-46.875,-43.457,-36.621
1790603620.456170,69.336,-52.734,-51.270,-17.090
1790603620.460465,44.434,-59.570,-58.594,-20.020
1790603620.464334,-77.148,-55.664,-52.246,-48.340
1790603620.468202,-102.051,-59.082,-58.105,-40.039
1790603620.472070,-5.371,-62.988,-52.246,29.785
1790603620.475938,64.453,-54.688,-53.711,42.480
1790603620.479806,-24.902,-59.082,-64.453,-29.297
1790603620.483674,-95.215,-66.895,-62.012,-57.617
1790603620.487542,-24.414,-67.871,-48.828,-20.020
1790603620.491410,61.035,-64.453,-53.223,15.625
1790603620.495278,-4.883,-55.664,-62.988,-10.742
1790603620.499146,-103.027,-55.664,-60.059,-41.504
1790603620.503014,-48.340,-63.965,-50.293,-20.508
1790603620.507284,65.918,-62.500,-46.875,7.324
1790603620.511153,43.945,-44.922,-49.316,3.418
1790603620.515021,-60.059,-38.086,-42.480,4.395
1790603620.518889,-43.457,-39.551,-38.086,5.371
1790603620.522757,56.152,-40.527,-45.410,6.836
1790603620.526625,73.242,-30.762,-49.316,-5.371
1790603620.530494,-36.133,-29.785,-37.598,-20.020
1790603620.534362,-73.242,-41.992,-54.688,-20.508
1790603620.538230,14.160,-48.340,-81.055,0.000
1790603620.542099,67.871,-41.016,-76.660,-3.906
1790603620.545967,-13.184,-34.668,-62.500,-28.320
1790603620.549835,-79.590,-45.410,-54.199,-23.438
1790603620.554074,-6.836,-48.340,-58.594,-4.395
1790603620.557942,82.520,-36.133,-55.176,26.855
1790603620.561810,18.066,-21.973,-49.316,2.930
1790603620.565679,-61.035,-19.043,-33.691,-38.574
1790603620.569547,-25.391,-26.367,-30.273,-11.719
1790603620.573416,65.430,-23.926,-45.898,53.223
1790603620.577284,26.367,-41.016,-56.152,34.668
1790603620.581153,-92.773,-65.430,-64.941,-23.926
1790603620.585021,-72.266,-48.828,-63.477,-29.297
1790603620.588890,47.852,-37.109,-49.805,18.066
1790603620.592758,96.680,-49.805,-44.434,31.250
1790603620.596627,-24.414,-41.016,-41.504,-26.367
1790603620.601131,0.000,-33.203,-41.992,-28.320
1790603620.605000,0.000,-49.805,-60.059,-0.977
1790603620.608869,0.000,-48.340,-66.895,-8.301
1790603620.612738,0.000,-40.527,-67.383,-1.465
1790603620.616607,0.000,-49.805,-60.547,7.324
1790603620.620476,0.000,-44.922,-42.480,11.230
1790603620.624344,0.000,-36.621,-35.156,26.367
1790603620.628213,0.000,-37.598,-39.551,6.836
1790603620.632082,0.000,-29.785,-45.898,-17.578
1790603620.635951,0.000,-26.855,-43.945,31.250
1790603620.639820,0.000,-40.527,-42.480,58.105
1790603620.643688,0.000,-49.805,-51.758,28.809
1790603620.648137,-46.387,-34.668,-38.574,1.465
1790603620.652006,-55.176,-27.832,-30.762,-14.160
1790603620.655875,41.016,-27.832,-46.387,0.488
1790603620.659745,92.773,-32.227,-43.945,28.809
1790603620.663614,-5.859,-46.387,-33.691,15.625
1790603620.667483,-71.777,-46.387,-37.598,1.953
1790603620.671352,18.066,-39.062,-50.781,36.621
1790603620.675221,98.145,-42.480,-57.617,39.062
1790603620.679090,22.949,-38.574,-52.246,-0.488
1790603620.682959,-62.500,-31.250,-51.270,5.371
1790603620.686828,-8.789,-31.738,-59.570,33.691
1790603620.690697,87.402,-11.719,-55.176,29.297
1790603620.695090,26.367,-19.531,-58.594,-25.391
1790603620.698959,-75.684,-36.621,-61.523,-48.340
1790603620.702829,-78.125,-34.180,-58.594,-24.414
1790603620.706698,22.461,-38.086,-51.758,10.254
1790603620.710567,40.527,-40.039,-49.805,8.789
1790603620.714437,-60.059,-32.715,-44.922,-11.719
1790603620.718306,-73.242,-32.715,-46.875,-19.043
1790603620.722176,29.297,-36.621,-49.805,14.648
1790603620.726045,83.496,-23.926,-36.133,46.387
1790603620.729915,-38.574,-31.250,-52.246,-15.137
1790603620.733784,-104.004,-48.828,-77.148,-66.895
1790603620.737653,-5.371,-39.551,-59.082,-14.160
1790603620.741998,72.754,-41.016,-55.664,10.742
1790603620.745868,9.277,-42.969,-49.316,-8.789
1790603620.749738,-81.055,-38.574,-26.367,-22.461
1790603620.753608,-42.969,-41.992,-48.828,2.441
1790603620.757477,68.848,-38.574,-62.500,35.156
1790603620.761347,55.664,-38.574,-58.594,10.254
1790603620.765217,-54.199,-33.203,-61.035,-39.551
1790603620.769086,-48.340,-26.855,-55.664,-37.598
1790603620.772956,41.016,-45.410,-58.105,-4.883
1790603620.776826,31.738,-64.941,-60.059,18.066
1790603620.780695,-59.082,-52.734,-61.523,-19.043
1790603620.784565,-80.566,-38.086,-62.012,-41.992
1790603620.788874,12.207,-30.273,-54.199,31.738
1790603620.792744,77.148,-37.109,-62.012,36.133
1790603620.796614,-12.695,-46.875,-73.242,-42.969
1790603620.800484,-78.125,-46.387,-64.941,-32.715
1790603620.804354,-5.371,-44.922,-56.152,11.230
1790603620.808224,89.355,-38.574,-56.641,11.719
1790603620.812094,29.297,-35.645,-58.594,-0.488
1790603620.815964,-65.430,-39.062,-36.133,-0.977
1790603620.819834,-31.250,-35.645,-41.016,5.371
1790603620.823704,61.523,-32.715,-81.543,1.953
1790603620.827574,45.898,-40.527,-67.871,18.066
1790603620.831444,-61.523,-43.945,-38.086,1.465
1790603620.835707,-77.148,-48.828,-47.363,-21.484
1790603620.839577,21.484,-50.293,-57.617,8.301
1790603620.843447,63.965,-42.480,-60.059,5.859
1790603620.847317,-43.945,-41.504,-66.406,-16.602
1790603620.851187,-86.914,-39.551,-58.105,0.977
1790603620.855057,10.742,-33.203,-50.293,5.371
1790603620.858928,75.195,-34.180,-51.270,5.371
1790603620.862798,-10.254,-43.945,-61.523,-19.043
1790603620.866668,-84.473,-43.945,-60.547,-27.832
1790603620.870538,-24.414,-42.480,-40.527,16.602
1790603620.874408,69.336,-56.152,-46.387,35.156
1790603620.878278,21.484,-57.617,-70.312,0.000
1790603620.882587,-70.801,-36.621,-70.312,-24.902
1790603620.886457,-33.203,-29.785,-48.828,-21.973
1790603620.890328,61.523,-32.227,-50.781,4.395
1790603620.894198,45.898,-41.992,-69.824,6.348
1790603620.898068,-54.688,-46.387,-49.316,-5.371
1790603620.901939,-73.730,-44.922,-38.086,-14.648
1790603620.905809,30.273,-44.434,-63.477,-4.883
1790603620.909680,69.336,-48.828,-79.102,12.695
1790603620.913550,-32.227,-41.504,-71.777,-1.953
1790603620.917420,-79.102,-32.715,-57.129,-10.742
1790603620.921291,4.395,-40.039,-54.199,5.371
1790603620.925161,76.660,-42.480,-59.082,15.137
1790603620.929355,-0.488,-40.039,-60.059,-8.301
1790603620.933225,-82.031,-43.457,-61.523,-5.859
1790603620.937096,-14.648,-43.945,-68.848,10.742
1790603620.940966,89.355,-45.898,-55.664,32.227
1790603620.944837,43.457,-49.805,-42.969,-14.160
1790603620.948707,-69.336,-60.059,-38.574,-38.574
1790603620.952578,-61.035,-64.453,-40.527,0.977
1790603620.956449,30.762,-49.805,-44.922,3.906
1790603620.960319,37.598,-52.734,-50.293,23.438
1790603620.964190,-77.148,-68.848,-24.414,3.418
1790603620.968060,-113.281,-69.824,-21.484,-1.953
1790603620.971931,-7.324,-71.289,-65.430,-1.465
1790603620.976377,58.105,-76.172,-66.895,-6.348
1790603620.980247,-24.902,-64.941,-47.852,1.953
1790603620.984118,-91.309,-59.570,-47.852,-8.789
1790603620.987989,-22.461,-64.941,-58.594,-4.883
1790603620.991860,69.824,-60.547,-54.199,9.766
1790603620.995731,14.160,-54.199,-42.969,7.324
1790603620.999602,-90.332,-51.270,-37.109,-25.391
1790603621.003473,-64.453,-54.199,-47.363,-33.691
1790603621.007343,57.129,-61.035,-63.965,9.766
1790603621.011214,58.594,-63.477,-65.918,17.090
1790603621.015085,-47.363,-57.617,-69.824,-26.367
1790603621.018956,-34.180,-43.945,-70.801,-22.949
1790603621.023363,71.289,-38.574,-44.922,15.137
1790603621.027234,76.172,-48.828,-39.062,16.602
1790603621.031105,-49.316,-76.660,-54.688,-8.301
1790603621.034976,-104.492,-86.914,-58.105,-15.625
1790603621.038847,-24.414,-79.102,-56.152,-2.441
1790603621.042719,47.852,-76.660,-54.199,3.418
1790603621.046590,-28.809,-73.242,-51.270,-8.789
1790603621.050461,-115.723,-71.289,-54.199,-25.879
1790603621.054332,-49.805,-72.266,-69.336,12.207
1790603621.058203,55.176,-82.520,-71.289,20.020
1790603621.062074,16.602,-66.895,-69.824,-3.418
1790603621.065946,-86.426,-57.129,-57.129,5.371
1790603621.070321,0.000,-79.102,-53.711,2.930
1790603621.074192,0.000,-72.754,-63.477,16.113
1790603621.078063,0.000,-65.918,-51.758,15.625
1790603621.081935,0.000,-69.824,-41.992,-23.438
1790603621.085806,0.000,-59.082,-41.016,-8.789
1790603621.089678,0.000,-52.246,-52.734,32.715
1790603621.093549,0.000,-67.871,-75.195,-11.719
1790603621.097420,0.000,-85.449,-69.336,-41.504
1790603621.101292,0.000,-79.102,-57.129,-20.020
1790603621.105163,0.000,-72.266,-64.453,-12.695
1790603621.109035,0.000,-66.895,-67.871,-12.207
1790603621.112906,0.000,-63.965,-66.895,-17.578
1790603621.117516,-84.961,-58.594,-66.895,-36.133
1790603621.121387,-41.992,-56.641,-65.430,-11.719
1790603621.125259,54.199,-56.641,-60.059,18.066
1790603621.129131,33.203,-38.086,-53.223,-4.883
1790603621.133003,-79.102,-50.293,-59.082,-41.992
1790603621.136875,-84.473,-70.801,-62.988,-39.551
1790603621.140746,22.461,-70.312,-51.758,12.695
1790603621.144618,41.504,-64.941,-55.176,11.230
1790603621.148490,-74.219,-71.289,-73.730,-8.301
1790603621.152362,-96.680,-63.477,-77.637,-11.230
1790603621.156234,13.184,-44.434,-62.988,12.695
1790603621.160105,63.965,-49.805,-58.594,17.090
1790603621.164406,0.000,-66.406,0.000,-29.297
1790603621.168278,0.000,-72.754,0.000,-54.199
1790603621.172150,0.000,-62.500,0.000,-38.574
1790603621.176022,0.000,-63.477,0.000,13.672
1790603621.179894,0.000,-62.988,0.000,25.391
1790603621.183766,0.000,-60.059,0.000,-5.371
1790603621.187638,0.000,-57.617,0.000,-0.977
1790603621.191510,0.000,-57.617,0.000,41.992
1790603621.195382,0.000,-47.852,0.000,31.738
1790603621.199254,0.000,-47.363,0.000,-25.391
1790603621.203126,0.000,-58.594,0.000,-31.250
1790603621.206998,0.000,-60.059,0.000,9.277
1790603621.211254,48.828,-59.570,-65.918,20.508
1790603621.215127,-71.777,-55.664,-77.637,-22.461
1790603621.218999,-81.543,-42.969,-62.988,-27.832
1790603621.222871,22.461,-34.180,-58.105,-2.930
1790603621.226743,68.359,-48.828,-70.801,6.348
1790603621.230616,-10.742,-49.316,-78.125,-5.859
1790603621.234488,-84.961,-51.270,-62.988,-40.039
1790603621.238360,-24.414,-56.641,-56.641,-24.902
1790603621.242232,57.129,-60.547,-69.824,-7.324
1790603621.246104,-14.160,-64.941,-72.266,-45.410
1790603621.249977,-108.887,-58.594,-68.848,-42.969
1790603621.253849,-70.312,-57.129,-68.848,-15.625
1790603621.258050,51.758,-57.129,-77.637,-7.324
1790603621.261922,48.340,-50.293,-64.453,-7.324
1790603621.265795,-85.938,-49.316,-59.570,-41.504
1790603621.269667,-96.191,-52.246,-75.684,-50.293
1790603621.273540,12.695,-48.828,-71.777,-24.902
1790603621.277412,36.621,-42.480,-53.223,-20.508
1790603621.281284,-61.523,-41.016,-52.734,-32.227
1790603621.285157,-110.352,-42.969,-74.219,-58.105
1790603621.289029,-35.645,-49.805,-83.984,-51.758
1790603621.292902,36.133,-45.410,-74.219,-11.230
1790603621.296774,-18.555,-33.691,-67.383,-28.320
1790603621.300646,-104.004,-40.039,-65.918,-22.461
1790603621.304824,-60.059,-49.316,-65.918,-33.691
1790603621.308697,62.988,-36.621,-54.199,-22.461
1790603621.312569,40.039,-25.879,-46.875,8.301
1790603621.316442,-72.266,-31.738,-47.363,-13.184
1790603621.320314,-55.664,-37.598,-48.828,-23.926
1790603621.324187,67.383,-23.926,-41.016,39.551
1790603621.328059,60.059,-12.695,-46.387,50.781
1790603621.331932,-61.523,-34.180,-66.406,-21.484
1790603621.335804,-72.266,-37.109,-54.688,-60.547
1790603621.339677,35.645,-27.344,-41.016,-26.367
1790603621.343550,73.730,-31.250,-44.922,-0.488
1790603621.347422,-29.785,-42.480,-41.016,-31.738
1790603621.351846,-88.379,-48.340,-46.875,-14.160
1790603621.355719,1.953,-36.133,-59.082,5.371
1790603621.359591,90.332,-29.785,-56.152,16.113
1790603621.363464,11.230,-36.133,-62.988,11.230
1790603621.367337,-80.566,-39.551,-65.430,-22.949
1790603621.371210,-16.113,-35.645,-52.246,-19.531
1790603621.375083,92.773,-28.809,-42.969,24.902
1790603621.378956,40.039,-25.879,-46.387,16.602
1790603621.382828,-68.359,-39.551,-58.105,-12.207
1790603621.386701,-46.387,-41.992,-52.246,13.184
1790603621.390574,48.828,-30.762,-50.781,1.953
1790603621.394447,56.152,-25.391,-57.617,-21.484
1790603621.398836,0.000,-22.949,-49.805,-15.625
1790603621.402709,0.000,-29.785,-38.086,-17.090
1790603621.406582,0.000,-42.480,-39.551,10.254
1790603621.410455,0.000,-35.156,-28.320,38.574
1790603621.414329,0.000,-29.297,-33.691,25.391
1790603621.418202,0.000,-40.527,-51.270,18.555
1790603621.422075,0.000,-45.410,-58.105,24.414
1790603621.425948,0.000,-49.805,-60.547,44.434
1790603621.429821,0.000,-47.852,-54.199,28.809
1790603621.433694,0.000,-52.246,-57.129,-18.555
1790603621.437567,0.000,-61.035,-72.754,-36.621
1790603621.441440,0.000,-49.805,-79.590,1.953
1790603621.445776,30.762,-52.734,-87.402,-2.441
1790603621.449649,-82.031,-57.617,-90.332,-37.598
1790603621.453522,-88.867,-52.734,-82.520,-36.133
1790603621.457396,10.742,-54.199,-78.125,-19.531
1790603621.461269,42.969,-52.734,-68.359,3.418
1790603621.465142,-52.246,-51.270,-53.223,10.742
1790603621.469016,-97.168,-62.988,-68.359,-27.344
1790603621.472889,-10.742,-58.594,-74.219,-38.086
1790603621.476762,62.012,-44.434,-62.012,3.906
1790603621.480636,-19.531,-61.035,-76.660,-12.695
1790603621.484509,-85.938,-67.871,-80.078,-44.434
1790603621.488382,-13.184,-60.059,-64.941,-15.137
1790603621.492711,0.000,-58.594,-65.918,16.113
1790603621.496584,0.000,-65.918,-78.125,-3.906
1790603621.500458,0.000,-62.500,-71.289,-28.320
1790603621.504331,0.000,-62.500,-61.523,-25.391
1790603621.508205,0.000,-69.824,-74.219,-15.625
1790603621.512079,0.000,-49.316,-75.195,-19.043
1790603621.515952,0.000,-48.340,-66.895,-19.531
1790603621.519826,0.000,-67.383,-63.477,-12.207
1790603621.523699,0.000,-68.359,-68.848,1.953
1790603621.527573,0.000,-62.500,-71.777,-9.277
1790603621.531446,0.000,-57.617,-55.176,-36.133
1790603621.535320,0.000,-50.293,-36.133,-20.508
1790603621.539605,19.531,-46.875,-49.805,10.254
1790603621.543479,81.055,-48.828,-66.895,17.578
1790603621.547353,17.090,-40.039,-38.574,-3.906
1790603621.551226,-60.547,-46.387,-45.898,0.000
1790603621.555100,-23.438,-62.988,-69.824,0.488
1790603621.558974,67.383,-63.477,-66.895,17.578
1790603621.562848,32.715,-57.617,-61.523,13.184
1790603621.566721,-58.105,-55.664,-52.246,-6.348
1790603621.570595,-49.805,-61.035,-61.523,-12.207
1790603621.574469,42.969,-60.059,-77.148,-20.996
1790603621.578343,57.129,-54.199,-67.383,-2.930
1790603621.582217,-34.180,-53.711,-56.641,-1.953
1790603621.586755,0.000,-59.082,0.000,-11.719
1790603621.590629,0.000,-48.828,0.000,4.395
1790603621.594503,0.000,-56.641,0.000,27.832
1790603621.598377,0.000,-73.242,0.000,2.930
1790603621.602251,0.000,-62.988,0.000,-9.766
1790603621.606125,0.000,-55.176,0.000,21.484
1790603621.609999,0.000,-45.410,0.000,54.688
1790603621.613873,0.000,-37.109,0.000,36.133
1790603621.617747,0.000,-46.875,0.000,10.254
1790603621.621621,0.000,-54.688,0.000,19.531
1790603621.625496,0.000,-57.129,0.000,13.184
1790603621.629370,0.000,-59.570,0.000,-4.883
1790603621.633579,-68.359,-60.059,-74.707,-29.785
1790603621.637453,-65.430,-56.152,-67.871,-13.184
1790603621.641327,50.781,-54.688,-47.852,16.113
1790603621.645201,71.777,-62.988,-49.805,6.348
1790603621.649076,-45.410,-54.688,-62.012,-17.578
1790603621.652950,-73.730,-47.852,-47.852,-7.324
1790603621.656824,29.785,-54.199,-40.527,15.137
1790603621.660698,87.402,-54.199,-50.293,43.945
1790603621.664572,-10.254,-59.570,-53.711,24.414
1790603621.668447,-83.496,-62.988,-67.383,-26.855
1790603621.672321,2.930,-55.664,-65.918,3.906
1790603621.676195,91.309,-64.941,-65.430,26.855
1790603621.680376,18.066,-62.500,-75.684,6.836
1790603621.684250,-82.031,-55.176,-63.477,-17.578
1790603621.688124,-32.715,-64.941,-58.105,0.977
1790603621.691999,78.125,-61.523,-56.641,30.273
1790603621.695873,46.875,-51.758,-47.852,28.320
1790603621.699748,-65.430,-45.410,-34.668,17.578
1790603621.703622,-65.918,-50.293,-39.062,8.301
1790603621.707496,32.715,-53.223,-51.270,23.926
1790603621.711371,57.129,-55.664,-53.711,6.836
1790603621.715245,-37.109,-60.547,-38.574,-18.066
1790603621.719120,-77.637,-59.570,-49.316,-26.367
1790603621.722994,12.207,-64.453,-80.566,-21.973
1790603621.727374,84.473,-55.664,-70.312,11.230
1790603621.731249,1.465,-32.715,-61.523,11.719
1790603621.735123,-54.688,-32.715,-55.664,14.648
1790603621.738998,7.812,-46.875,-38.086,35.645
1790603621.742872,74.219,-48.828,-39.551,22.949
1790603621.746747,32.227,-42.480,-33.203,8.789
1790603621.750622,-71.777,-59.082,-32.715,-16.113
1790603621.754496,-76.172,-74.707,-51.758,-47.363
1790603621.758371,45.410,-64.453,-48.828,-3.418
1790603621.762246,53.223,-68.848,-40.527,24.414
1790603621.766120,-66.406,-79.102,-42.480,-9.277
1790603621.769995,-93.262,-83.496,-48.340,-19.531
1790603621.774366,8.301,-92.773,-46.875,21.973
1790603621.778241,70.312,-87.891,-36.621,31.250
1790603621.782116,-39.062,-81.055,-30.273,-4.883
1790603621.785991,-101.562,-86.426,-30.762,9.277
1790603621.789865,7.324,-76.660,-23.926,42.480
1790603621.793740,100.098,-68.848,-25.391,48.828
1790603621.797615,8.789,-76.172,-44.434,31.738
1790603621.801490,-89.355,-63.965,-42.480,-27.344
1790603621.805365,-33.203,-62.012,-24.414,7.812
1790603621.809240,70.801,-73.730,-27.344,84.961
1790603621.813115,41.016,-74.219,-32.715,65.430
1790603621.816990,-53.223,-70.312,-17.578,36.133
1790603621.821310,-41.504,-65.430,-26.855,32.227
1790603621.825185,52.246,-62.988,-41.016,50.293
1790603621.829060,71.777,-73.242,-45.898,42.480
1790603621.832935,-24.902,-65.918,-43.945,15.625
1790603621.836810,-63.965,-52.246,-35.645,-4.883
1790603621.840685,31.738,-59.570,-35.645,-14.648
1790603621.844560,89.355,-56.152,-36.133,18.555
1790603621.848435,0.488,-57.617,-21.484,36.133
1790603621.852310,-57.617,-61.523,-13.184,24.414
1790603621.856185,0.000,-62.988,-43.457,2.441
1790603621.860060,76.172,-60.547,-57.617,3.906
1790603621.863936,24.902,-55.176,-42.969,38.086
1790603621.868212,-75.195,-62.500,-35.645,26.855
1790603621.872088,-37.598,-69.336,-42.969,-1.953
1790603621.875963,79.102,-52.246,-47.363,25.879
1790603621.879838,63.965,-45.898,-27.832,49.805
1790603621.883714,-49.316,-64.453,-32.227,6.348
1790603621.887589,-62.012,-71.777,-61.035,-20.996
1790603621.891464,46.875,-71.289,-66.895,0.977
1790603621.895339,83.008,-62.988,-51.758,21.484
1790603621.899215,-26.367,-49.316,-35.645,23.438
1790603621.903090,-69.824,-45.898,-38.574,7.324
1790603621.906965,16.602,-52.734,-46.387,-5.371
1790603621.910841,79.102,-62.012,-52.246,17.578
1790603621.915084,-1.953,-59.570,-50.293,11.719
1790603621.918959,-88.379,-42.969,-44.922,-33.691
1790603621.922835,-13.672,-47.852,-46.875,-36.133
1790603621.926710,64.941,-62.012,-52.734,1.953
1790603621.930586,-4.395,-52.734,-61.523,6.348
1790603621.934461,-82.031,-52.734,-58.105,8.789
1790603621.938337,-50.293,-48.828,-45.898,6.348
1790603621.942212,69.336,-39.062,-36.133,32.227
1790603621.946088,62.500,-53.711,-38.086,37.598
1790603621.949963,-63.965,-62.988,-60.059,-20.508
1790603621.953838,-66.406,-59.570,-72.754,-33.203
1790603621.957714,39.062,-58.105,-71.777,-25.879
1790603621.961958,54.688,-66.895,-75.684,-0.977
1790603621.965833,-56.152,-65.918,-76.660,-6.836
1790603621.969709,-89.844,-54.688,-68.848,-27.344
1790603621.973584,15.137,-50.781,-57.617,16.113
1790603621.977460,78.613,-57.617,-39.062,37.109
1790603621.981336,6.836,-51.758,-30.762,4.883
1790603621.985211,-67.871,-51.270,-60.547,-32.227
1790603621.989087,-25.391,-61.035,-62.500,-12.207
1790603621.992963,61.523,-60.059,-54.688,14.648
1790603621.996838,31.738,-60.059,-64.453,-15.137
1790603622.000714,-72.266,-66.895,-70.801,-23.926
1790603622.004590,-73.730,-62.500,-68.359,-4.395
1790603622.008785,37.109,-57.617,-72.754,-1.465
1790603622.012661,47.852,-62.500,-75.684,-30.273
1790603622.016536,-52.246,-53.711,-65.918,-37.109
1790603622.020412,-73.730,-48.340,-53.711,10.742
1790603622.024288,24.902,-56.641,-49.805,14.648
1790603622.028164,70.312,-58.105,-62.988,-2.930
1790603622.032040,-20.996,-51.758,-66.895,-23.926
1790603622.035915,-96.191,-68.359,-65.918,-25.391
1790603622.039791,-29.297,-72.266,-74.219,-17.578
1790603622.043667,72.266,-59.570,-64.453,-2.930
1790603622.047543,4.883,-55.664,-57.617,-8.789
1790603622.051419,-96.191,-58.105,-62.500,-27.344
1790603622.055561,0.000,-67.871,-63.965,-20.020
1790603622.059437,0.000,-70.801,-55.664,31.738
1790603622.063312,0.000,-66.895,-57.129,17.578
1790603622.067188,0.000,-70.312,-75.684,-40.039
1790603622.071064,0.000,-82.520,-82.520,-65.918
1790603622.074940,0.000,-67.871,-58.105,-12.695
1790603622.078816,0.000,-50.293,-55.176,43.945
1790603622.082692,0.000,-55.176,-71.289,-4.395
1790603622.086568,0.000,-54.199,-66.406,-58.594
1790603622.090444,0.000,-57.617,-67.383,3.906
1790603622.094320,0.000,-55.664,-73.730,48.340
1790603622.098196,0.000,-45.898,-64.941,17.090
1790603622.102574,-83.008,-49.316,-64.941,-34.668
1790603622.106450,-13.672,-48.340,-58.105,-9.277
1790603622.110327,87.402,-49.805,-55.664,40.527
1790603622.114203,31.738,-48.340,-59.570,0.000
1790603622.118079,-75.195,-39.062,-44.434,-25.879
1790603622.121955,-38.086,-40.527,-54.199,-35.645
1790603622.125831,79.590,-43.945,-62.988,23.926
1790603622.129707,74.219,-38.086,-41.504,57.129
1790603622.133583,-31.250,-30.273,-45.410,-5.371
1790603622.137460,-56.152,-45.410,-59.570,-27.832
1790603622.141336,41.504,-42.480,-43.945,24.902
1790603622.145212,92.285,-27.832,-32.715,38.086
1790603622.149555,-9.277,-26.855,-34.180,14.160
1790603622.153431,-56.641,-30.273,-35.156,12.695
1790603622.157308,35.156,-24.902,-27.832,34.180
1790603622.161184,104.980,-10.254,-22.949,37.598
1790603622.165060,20.508,-3.906,-19.043,-7.324
1790603622.168937,-54.688,-6.348,-13.672,10.254
1790603622.172813,5.371,-6.348,-21.484,59.082
1790603622.176689,96.191,-8.789,-41.016,57.617
1790603622.180566,55.664,-24.902,-50.781,33.203
1790603622.184442,-39.062,-29.297,-34.668,3.906
1790603622.188318,-43.945,-36.621,-51.758,-12.207
1790603622.192195,54.199,-37.109,-78.125,-4.883
1790603622.196491,74.219,-27.344,-73.242,-1.465
1790603622.200368,-47.363,-31.738,-61.523,-7.812
1790603622.204245,-65.918,-30.762,-62.012,-38.086
1790603622.208121,27.832,-27.832,-64.453,1.465
1790603622.211998,70.801,-22.949,-55.176,47.852
1790603622.215874,-31.250,-26.367,-54.688,-10.254
1790603622.219751,-99.121,-46.387,-65.430,-54.688
1790603622.223627,-14.160,-65.430,-67.871,-19.531
1790603622.227504,78.613,-60.059,-58.594,37.598
1790603622.231380,-1.465,-51.758,-63.965,15.625
1790603622.235257,-92.285,-49.805,-66.895,-24.902
1790603622.239134,-24.902,-46.875,-61.035,-14.648
1790603622.243397,71.777,-41.016,-62.012,15.625
1790603622.247274,48.340,-40.527,-58.105,9.277
1790603622.251151,-57.617,-53.711,-56.641,-30.762
1790603622.255028,-72.754,-48.340,-62.500,-37.109
1790603622.258904,8.301,-43.457,-76.172,-5.371
1790603622.262781,11.719,-51.758,-75.195,1.953
1790603622.266658,-69.336,-50.781,-74.707,-54.688
1790603622.270534,-71.289,-35.156,-46.875,-20.020
1790603622.274411,24.414,-29.297,-33.203,12.207
1790603622.278288,49.805,-45.898,-68.848,-12.695
1790603622.282165,-20.996,-36.621,-65.430,0.000
1790603622.286041,-69.824,-35.645,-65.430,-15.625
1790603622.290282,-21.484,-55.664,-95.215,-42.480
1790603622.294159,59.570,-52.734,-83.496,3.418
1790603622.298036,20.020,-33.691,-48.340,42.480
1790603622.301913,-67.383,-41.992,-52.734,-6.836
1790603622.305790,-45.898,-50.293,-64.941,-47.852
1790603622.309667,80.566,-37.598,-45.898,1.953
1790603622.313544,46.875,-50.781,-48.340,35.156
1790603622.317420,-87.891,-57.617,-71.777,-3.906
1790603622.321297,-87.891,-56.641,-72.266,-19.531
1790603622.325174,24.414,-53.711,-62.500,16.602
1790603622.329051,54.199,-50.293,-67.383,40.527
1790603622.332928,-53.711,-55.176,-64.453,-6.836
1790603622.337132,0.000,-55.664,-60.547,-41.504
1790603622.341009,0.000,-50.293,-84.473,-36.621
1790603622.344886,0.000,-52.734,-83.008,-16.113
1790603622.348763,0.000,-48.340,-73.730,1.465
1790603622.352640,0.000,-47.852,-70.312,5.859
1790603622.356517,0.000,-56.152,-72.266,-8.301
1790603622.360394,0.000,-53.223,-70.312,-7.812
1790603622.364271,0.000,-56.152,-53.711,15.625
1790603622.368148,0.000,-70.312,-60.059,15.625
1790603622.372025,0.000,-75.684,-75.684,-20.020
1790603622.375902,0.000,-57.617,-70.312,3.418
1790603622.379779,0.000,-52.734,-69.336,1.465
1790603622.383972,-79.590,-54.688,-72.266,-29.785
1790603622.387849,-75.684,-50.781,-70.312,-21.973
1790603622.391726,26.855,-57.129,-59.570,-7.812
1790603622.395603,61.035,-50.293,-49.805,20.996
1790603622.399481,-47.852,-47.852,-61.523,-23.926
1790603622.403358,-93.750,-59.570,-67.383,-50.293
1790603622.407235,17.090,-60.547,-52.734,12.207
1790603622.411112,106.445,-46.387,-49.316,46.387
1790603622.414989,7.812,-46.387,-62.012,-17.090
1790603622.418866,-81.055,-40.039,-49.805,-11.719
1790603622.422744,-14.160,-32.227,-32.715,8.789
1790603622.426621,73.730,-40.527,-49.805,1.465
1790603622.430757,23.926,-46.875,-61.523,-14.648
1790603622.434634,-79.102,-49.805,-63.965,-59.570
1790603622.438512,-61.523,-41.504,-61.523,-16.113
1790603622.442389,45.410,-43.457,-54.688,31.250
1790603622.446266,55.176,-55.176,-55.664,26.855
1790603622.450143,-42.480,-42.969,-51.758,0.000
1790603622.454021,-59.082,-47.852,-51.758,-15.625
1790603622.457898,13.184,-56.641,-56.152,-40.527
1790603622.461775,59.570,-46.387,-55.664,1.465
1790603622.465653,-23.438,-44.434,-61.523,2.441
1790603622.469530,-96.191,-52.246,-61.035,-33.203
1790603622.473407,-23.926,-53.223,-62.500,-22.949
1790603622.477722,66.895,-45.898,-66.406,-15.137
1790603622.481599,-2.441,-45.410,-53.223,-21.484
1790603622.485477,-85.449,-42.480,-41.016,-35.645
1790603622.489354,-32.227,-40.527,-39.551,-5.859
1790603622.493232,73.730,-45.410,-37.598,35.156
1790603622.497109,59.082,-37.109,-35.156,13.672
1790603622.500987,-69.336,-34.180,-50.781,-6.348
1790603622.504864,-62.988,-49.316,-53.711,-0.977
1790603622.508742,45.898,-51.758,-46.387,20.996
1790603622.512619,49.805,-42.969,-51.270,9.766
1790603622.516497,-36.133,-42.969,-44.922,-27.832
1790603622.520374,-73.242,-45.410,-48.340,-2.930
1790603622.524667,8.301,-46.387,-52.246,23.438
1790603622.528544,81.055,-41.992,-46.875,9.277
1790603622.532422,-6.348,-45.898,-53.711,-19.531
1790603622.536300,-86.914,-54.688,-50.781,-19.531
1790603622.540177,-9.766,-54.199,-51.758,2.930
1790603622.544055,71.777,-63.965,-64.453,11.230
1790603622.547933,9.766,-63.965,-62.012,-13.672
1790603622.551811,-63.477,-39.062,-55.664,4.883
1790603622.555688,-30.762,-35.156,-33.203,32.227
1790603622.559566,65.918,-48.828,-37.598,2.441
1790603622.563443,38.086,-57.129,-66.895,-11.230
1790603622.567321,-79.102,-54.199,-61.035,-22.461
1790603622.571579,-79.590,-52.734,-55.664,-30.762
1790603622.575457,17.578,-55.664,-54.688,-7.324
1790603622.579334,50.293,-59.082,-48.340,-3.418
1790603622.583212,-53.711,-62.012,-54.199,-13.672
1790603622.587090,-108.887,-67.383,-67.871,-36.621
1790603622.590968,-21.484,-61.035,-59.082,-13.184
1790603622.594846,45.898,-55.176,-49.316,-2.930
1790603622.598724,-20.508,-58.594,-52.734,-57.129
1790603622.602602,-82.520,-60.059,-47.852,-28.809
1790603622.606479,-26.367,-56.152,-46.875,9.277
1790603622.610357,81.543,-40.527,-50.293,5.859
1790603622.614235,32.715,-34.668,-47.852,-6.836
1790603622.618454,-77.637,-44.922,-53.223,-58.105
1790603622.622332,-57.129,-56.641,-49.316,-35.645
1790603622.626210,55.176,-46.875,-48.340,8.301
1790603622.630088,60.547,-37.598,-47.852,-9.277
1790603622.633966,-56.641,-38.086,-39.551,-13.184
1790603622.637844,-72.754,-34.668,-36.133,-8.789
1790603622.641722,23.926,-44.434,-56.641,-18.555
1790603622.645600,71.289,-45.410,-36.133,0.000
1790603622.649478,-26.367,-48.340,-26.367,-24.902
1790603622.653356,-107.910,-59.570,-73.730,-57.617
1790603622.657234,-25.879,-51.270,-55.176,23.438
1790603622.661112,64.453,-50.293,-42.969,38.574
1790603622.665339,0.000,-63.477,-62.988,-11.230
1790603622.669218,0.000,-62.988,-64.453,-55.664
1790603622.673096,0.000,-49.805,-77.148,-59.082
1790603622.676974,0.000,-49.805,-83.984,-15.137
1790603622.680852,0.000,-60.547,-75.195,-35.156
1790603622.684730,0.000,-61.523,-72.266,-67.871
1790603622.688608,0.000,-60.547,-58.105,-31.250
1790603622.692487,0.000,-60.059,-41.504,17.578
1790603622.696365,0.000,-59.570,-54.688,2.441
1790603622.700243,0.000,-66.895,-68.848,-30.762
1790603622.704121,0.000,-72.754,-69.824,-37.598
1790603622.707999,0.000,-62.988,-75.684,-41.016
1790603622.712199,37.598,-52.734,-68.359,2.441
1790603622.716078,-61.523,-66.406,-72.754,-8.789
1790603622.719956,-101.074,-78.613,-77.148,-56.641
1790603622.723834,-17.090,-64.453,-49.316,-55.176
1790603622.727712,55.664,-69.824,-58.594,-0.977
1790603622.731591,4.395,-74.707,-76.660,-22.461
1790603622.735469,-83.984,-62.988,-68.848,-41.016
1790603622.739347,-59.082,-61.035,-68.359,22.461
1790603622.743225,28.320,-62.988,-69.336,11.230
1790603622.747104,19.531,-61.035,-74.219,-28.809
1790603622.750982,-69.336,-62.012,-76.172,-44.922
1790603622.754860,-80.078,-68.848,-74.707,-41.016
1790603622.759004,34.180,-59.082,-49.805,10.254
1790603622.762882,72.266,-53.223,-42.480,22.461
1790603622.766760,-28.320,-57.129,-73.242,-35.645
1790603622.770639,-72.266,-54.199,-69.336,-38.086
1790603622.774517,11.230,-57.129,-59.082,-3.906
1790603622.778395,85.449,-56.641,-56.641,33.203
1790603622.782274,-0.977,-50.781,-44.434,7.812
1790603622.786152,-94.727,-60.059,-56.152,-27.832
1790603622.790031,-20.020,-60.547,-52.734,11.230
1790603622.793909,79.590,-50.781,-23.438,21.973
1790603622.797787,18.555,-61.035,-20.996,13.672
1790603622.801666,-74.219,-72.754,-30.762,18.066
1790603622.805825,-63.477,-69.336,-44.434,-7.324
1790603622.809704,40.527,-64.941,-34.180,19.043
1790603622.813583,61.523,-56.641,-28.809,21.484
1790603622.817461,-38.086,-47.852,-31.738,-27.344
1790603622.821340,-52.246,-50.781,-20.508,-8.789
1790603622.825218,60.059,-41.504,1.953,52.246
1790603622.829097,113.770,-23.926,15.625,75.195
1790603622.832975,1.953,-31.738,-20.996,17.090
1790603622.836854,-57.129,-41.992,-42.480,-8.789
1790603622.840732,43.945,-41.016,-17.578,71.777
1790603622.844611,107.422,-33.691,-5.371,102.539
1790603622.848489,33.691,-22.461,-13.184,40.527
1790603622.852808,-34.668,-30.273,-16.602,1.465
1790603622.856686,13.184,-39.551,-6.348,35.645
1790603622.860565,98.633,-35.156,-8.301,59.082
1790603622.864444,61.523,-33.203,-20.996,33.203
1790603622.868322,-37.598,-37.598,-24.902,-28.320
1790603622.872201,-32.715,-38.574,-38.574,7.812
1790603622.876080,64.941,-41.016,-37.598,98.633
1790603622.879958,71.777,-43.945,-32.227,54.688
1790603622.883837,-38.086,-42.969,-28.809,14.160
1790603622.887716,-41.992,-31.250,-13.672,29.297
1790603622.891594,57.129,-33.691,-14.648,39.551
1790603622.895473,88.379,-48.340,-26.367,16.602
1790603622.899773,-2.930,-45.898,-29.297,12.695
1790603622.903652,-50.781,-36.621,-37.109,4.883
1790603622.907531,17.578,-39.062,-51.758,-25.879
1790603622.911410,102.539,-34.668,-37.109,33.691
1790603622.915289,61.035,-24.414,-22.949,68.848
1790603622.919168,-31.250,-22.949,-16.602,51.758
1790603622.923046,-10.254,-20.020,-20.996,39.062
1790603622.926925,82.031,-28.809,-30.273,40.527
1790603622.930804,74.707,-22.461,-16.602,33.203
1790603622.934683,-25.391,-11.230,-15.625,2.930
1790603622.938562,-30.762,-25.391,-32.715,-25.879
1790603622.942441,74.219,-19.043,-24.414,8.301
1790603622.946712,94.727,-13.184,-12.695,71.289
1790603622.950591,-0.977,-11.719,-14.160,59.082
1790603622.954470,-41.992,-7.812,-8.789,30.762
1790603622.958349,54.199,-7.812,-3.418,54.199
1790603622.962228,116.211,-10.254,-8.789,64.941
1790603622.966107,24.414,-6.836,-14.160,36.621
1790603622.969986,-56.152,-10.742,-10.742,19.531
1790603622.973865,-2.441,-29.297,-13.184,2.441
1790603622.977744,96.191,-38.086,-28.320,25.879
1790603622.981623,46.875,-31.738,-34.180,43.457
1790603622.985502,-44.922,-18.555,-33.203,16.602
1790603622.989381,-6.348,-19.531,-12.695,3.418
1790603622.993622,0.000,-26.855,0.000,32.227
1790603622.997502,0.000,-32.715,0.000,50.293
1790603623.001381,0.000,-39.062,0.000,9.766
1790603623.005260,0.000,-24.902,0.000,16.602
1790603623.009139,0.000,-17.090,0.000,19.531
1790603623.013018,0.000,-39.062,0.000,8.789
1790603623.016897,0.000,-57.129,0.000,9.766
1790603623.020777,0.000,-41.992,0.000,-6.836
1790603623.024656,0.000,-37.109,0.000,0.488
1790603623.028535,0.000,-49.316,0.000,26.367
1790603623.032414,0.000,-46.875,0.000,0.488
1790603623.036294,0.000,-44.922,0.000,-36.621
1790603623.040545,-20.996,-48.828,-77.148,-1.465
1790603623.044425,53.223,-62.500,-82.031,-10.742
1790603623.048304,3.906,-64.453,-72.754,-4.395
1790603623.052183,-76.172,-60.059,-61.523,-33.203
1790603623.056062,-52.246,-59.570,-62.012,-27.832
1790603623.059942,48.340,-44.922,-57.129,28.809
1790603623.063821,41.992,-50.781,-60.547,9.277
1790603623.067701,-70.312,-71.289,-72.754,-0.488
1790603623.071580,-92.285,-75.684,-95.703,-31.738
1790603623.075459,12.207,-71.777,-87.891,-37.109
1790603623.079339,62.500,-70.312,-81.055,-5.371
1790603623.083218,-33.203,-72.266,-91.309,-22.949
1790603623.087598,-87.402,-82.031,-88.379,-32.227
1790603623.091478,-8.301,-74.707,-75.684,-18.555
1790603623.095357,63.477,-70.312,-75.195,18.066
1790603623.099237,-21.484,-78.125,-79.590,-22.461
1790603623.103116,-111.816,-76.172,-71.777,-83.984
1790603623.106996,-60.547,-64.941,-61.035,-19.531
1790603623.110875,40.527,-54.199,-62.988,15.137
1790603623.114755,23.926,-51.758,-57.129,-8.789
1790603623.118634,-83.496,-60.059,-55.176,-12.695
1790603623.122514,-91.309,-70.801,-57.129,-11.719
1790603623.126394,19.043,-73.242,-74.219,-3.418
1790603623.130273,45.410,-65.918,-67.383,5.371
1790603623.134417,-60.547,-58.105,-48.340,18.066
1790603623.138297,-95.215,-60.547,-56.641,-25.391
1790603623.142176,9.277,-52.246,-54.199,-8.789
1790603623.146056,69.824,-40.527,-52.734,23.926
1790603623.149936,-20.996,-46.875,-47.852,-2.930
1790603623.153816,-78.613,-57.129,-46.875,-24.902
1790603623.157695,6.836,-49.316,-43.945,-34.668
1790603623.161575,86.914,-43.457,-37.109,1.465
1790603623.165454,2.930,-46.875,-47.852,3.418
1790603623.169334,-100.098,-53.711,-50.781,-1.953
1790603623.173214,-55.176,-64.941,-50.293,-2.441
1790603623.177094,55.664,-55.664,-57.617,-12.695
1790603623.181633,34.668,-54.199,-44.922,30.273
1790603623.185513,-50.293,-51.758,-34.180,11.719
1790603623.189392,-41.504,-41.992,-41.504,-23.438
1790603623.193272,52.734,-38.574,-39.551,4.883
1790603623.197152,72.754,-51.758,-36.133,23.926
1790603623.201032,-24.902,-50.293,-44.922,-30.762
1790603623.204912,-64.453,-46.387,-56.152,-29.785
1790603623.208792,6.348,-69.336,-67.383,31.250
1790603623.212672,66.406,-69.336,-55.176,30.273
1790603623.216552,-5.371,-58.105,-23.438,15.137
1790603623.220432,-69.824,-64.453,-39.062,7.812
1790603623.224312,-17.090,-61.035,-63.477,14.160
1790603623.228607,72.754,-45.898,-42.480,8.301
1790603623.232488,20.996,-46.387,-36.133,12.695
1790603623.236368,-71.777,-51.270,-57.129,-0.488
1790603623.240248,-44.434,-49.316,-67.871,-48.340
1790603623.244128,68.359,-33.203,-54.688,-0.488
1790603623.248008,61.523,-40.039,-62.012,34.668
1790603623.251888,-67.383,-64.453,-66.406,-0.488
1790603623.255768,-70.312,-52.734,-38.086,-2.441
1790603623.259648,46.875,-29.785,-31.738,23.438
1790603623.263528,76.172,-40.527,-56.152,-4.395
1790603623.267409,-39.062,-52.246,-67.871,-34.668
1790603623.271289,-88.867,-44.434,-80.078,-46.875
1790603623.275567,2.930,-47.852,-74.707,3.418
1790603623.279448,87.891,-53.223,-50.781,57.617
1790603623.283328,5.859,-43.945,-51.758,-32.227
1790603623.287208,-102.051,-41.992,-50.781,-40.039
1790603623.291088,-42.969,-45.898,-42.969,5.859
1790603623.294969,68.848,-51.270,-36.621,24.902
1790603623.298849,28.320,-44.922,-43.945,5.859
1790603623.302729,-75.195,-34.180,-20.996,-4.883
1790603623.306609,-49.316,-42.480,-8.789,3.906
1790603623.310490,68.848,-44.922,-42.480,2.930
1790603623.314370,67.871,-46.875,-60.547,-10.254
1790603623.318250,-55.176,-52.246,-60.547,-15.137
1790603623.322503,-90.820,-55.176,-67.871,-15.137
1790603623.326383,16.602,-58.105,-66.406,14.160
1790603623.330264,83.496,-51.270,-58.594,30.762
1790603623.334144,-12.207,-46.387,-56.152,-17.578
1790603623.338024,-77.637,-41.504,-37.598,-3.906
1790603623.341905,-11.719,-48.828,-41.992,-5.371
1790603623.345785,64.941,-57.617,-56.152,-5.859
