timestamp,TP9,AF7,AF8,TP10
1789993444.171038,0.000,0.000,0.000,0.000
1789993444.174897,0.000,0.000,-0.488,0.000
1789993444.178757,-0.977,-0.977,-0.488,-1.465
1789993444.182617,0.000,1.953,-1.465,2.441
1789993444.186476,-2.441,-11.719,0.488,-13.184
1789993444.190336,-29.785,-29.297,-30.273,-36.621
1789993444.194195,-43.945,-26.367,-51.758,-34.668
1789993444.198055,-22.949,-25.879,-38.086,-33.203
1789993444.201914,-8.789,-29.297,-37.598,-29.785
1789993444.205774,-31.738,-34.668,-46.875,-30.273
1789993444.209634,-55.664,-34.180,-46.387,-40.527
1789993444.213493,-43.457,-31.250,-39.551,-39.062
1789993444.216484,-20.508,-34.668,-37.109,-21.484
1789993444.220272,-25.391,-34.180,-37.109,-33.203
1789993444.224059,-45.898,-34.180,-44.434,-53.223
1789993444.227846,-49.805,-40.527,-40.039,-48.828
1789993444.231633,-20.996,-37.109,-32.715,-31.738
1789993444.235420,-11.230,-28.809,-31.250,-27.344
1789993444.239208,-46.875,-32.227,-36.621,-39.062
1789993444.242995,-56.152,-32.227,-37.109,-34.180
1789993444.246782,-42.480,-39.551,-38.086,-34.180
1789993444.250569,-37.598,-47.852,-41.016,-49.316
1789993444.254356,-51.758,-45.898,-45.898,-62.500
1789993444.258144,-61.035,-43.457,-45.898,-66.895
1789993444.260633,-49.805,-35.645,-38.086,-50.781
1789993444.264367,-30.762,-34.180,-36.133,-32.227
1789993444.268100,-37.598,-31.250,-39.551,-41.016
1789993444.271833,-58.105,-27.832,-37.109,-49.316
1789993444.275566,-47.852,-30.273,-34.180,-41.016
1789993444.279299,-21.973,-24.414,-37.109,-22.949
1789993444.283032,-24.414,-21.484,-37.109,-17.090
1789993444.286765,-48.340,-31.738,-42.480,-31.250
1789993444.290498,-58.594,-32.227,-45.898,-34.180
1789993444.294232,-39.062,-23.438,-36.621,-37.598
1789993444.297965,-30.273,-26.367,-40.527,-52.734
1789993444.301698,-52.246,-34.668,-48.340,-68.848
1789993444.301368,-63.965,-46.875,-48.828,-72.266
1789993444.304988,-50.293,-46.875,-47.852,-49.316
1789993444.308608,-36.621,-38.574,-51.758,-37.109
1789993444.312228,-44.434,-34.668,-47.363,-29.785
1789993444.315849,-49.805,-41.504,-37.598,-40.527
1789993444.319469,-47.363,-48.828,-45.410,-53.223
1789993444.323089,-33.691,-48.340,-51.758,-51.758
1789993444.326710,-33.691,-38.574,-42.969,-48.340
1789993444.330330,-52.734,-21.973,-36.133,-36.621
1789993444.333950,-42.480,-28.320,-40.527,-20.508
1789993444.337570,-15.137,-41.504,-33.691,-2.930
1789993444.341191,-37.109,-39.062,-32.227,-27.344
1789993444.342267,-72.754,-36.133,-35.156,-57.617
1789993444.345834,-67.871,-40.039,-27.832,-54.199
1789993444.349402,-50.293,-43.457,-20.508,-45.898
1789993444.352969,-47.363,-41.016,-21.484,-35.156
1789993444.356536,-71.289,-45.410,-22.461,-38.574
1789993444.360104,-72.754,-44.434,-20.508,-50.293
1789993444.363671,-48.340,-37.598,-21.484,-46.387
1789993444.367238,-28.320,-31.738,-19.043,-35.156
1789993444.370806,-44.434,-27.832,-20.508,-40.527
1789993444.374373,-76.660,-36.621,-24.414,-47.363
1789993444.377940,-70.312,-45.410,-26.367,-43.457
1789993444.381507,-42.969,-48.340,-31.738,-29.297
1789993444.382464,-47.363,-41.504,-35.156,-22.949
1789993444.385988,-65.918,-33.691,-35.645,-50.781
1789993444.389512,-52.734,-29.297,-29.785,-49.805
1789993444.393035,-30.762,-31.250,-27.832,-22.461
1789993444.396559,-31.250,-36.621,-38.086,-21.973
1789993444.400083,-57.617,-27.832,-38.086,-28.320
1789993444.403607,-58.594,-24.414,-35.645,-35.156
1789993444.407130,-37.598,-32.227,-30.273,-26.855
1789993444.410654,-28.809,-30.273,-25.879,-18.066
1789993444.414178,-41.992,-27.344,-28.809,-40.527
1789993444.417702,-54.199,-30.762,-34.668,-45.410
1789993444.421226,-43.945,-33.691,-33.691,-28.320
1789993444.424345,-31.250,-34.668,-41.992,-23.926
1789993444.427863,-41.504,-38.574,-66.406,-23.926
1789993444.431381,-52.246,-39.062,-74.707,-24.902
1789993444.434900,-43.945,-35.645,-73.730,-29.297
1789993444.438418,-23.926,-32.227,-69.336,-28.320
1789993444.441936,-26.855,-20.020,-65.918,-32.227
1789993444.445454,-53.711,-20.996,-75.684,-40.527
1789993444.448972,-61.523,-42.969,-79.102,-39.551
1789993444.452490,-36.621,-45.410,-75.195,-29.297
1789993444.456009,-27.832,-34.668,-76.172,-43.945
1789993444.459527,-59.570,-37.109,-73.242,-56.152
1789993444.463045,-62.500,-35.645,-68.848,-45.410
1789993444.466075,-33.691,-30.762,-70.312,-34.668
1789993444.469587,-19.531,-24.902,-66.406,-22.949
1789993444.473099,-44.434,-25.391,-59.570,-38.574
1789993444.476612,-63.965,-37.598,-64.941,-56.152
1789993444.480124,-56.152,-41.016,-72.266,-44.922
1789993444.483636,-48.828,-39.551,-62.988,-24.902
1789993444.487149,-61.035,-39.551,-57.129,-25.391
1789993444.490661,-77.637,-43.457,-62.012,-41.504
1789993444.494174,-69.824,-45.898,-58.105,-39.062
1789993444.497686,-49.316,-51.758,-53.223,-41.016
1789993444.501198,-49.316,-49.805,-53.223,-49.805
1789993444.504710,-73.242,-43.457,-54.199,-53.711
1789993444.507792,-75.195,-39.551,-54.199,-47.363
1789993444.511300,-41.992,-41.992,-50.781,-27.832
1789993444.514808,-27.344,-43.945,-50.781,-25.879
1789993444.518316,-61.035,-42.969,-55.664,-54.199
1789993444.521824,-62.500,-40.527,-53.223,-57.129
1789993444.525331,-34.180,-35.156,-55.664,-40.527
1789993444.528839,-26.855,-40.039,-59.570,-40.527
1789993444.532347,-45.410,-34.180,-48.828,-41.016
1789993444.535855,-59.570,-23.926,-50.293,-47.852
1789993444.539363,-49.316,-34.668,-56.641,-35.156
1789993444.542871,-37.109,-44.922,-56.152,-20.020
1789993444.546379,-56.152,-45.410,-47.363,-22.461
1789993444.551090,-70.801,-37.598,-41.504,-30.762
1789993444.554609,-52.734,-32.227,-46.875,-34.668
1789993444.558128,-39.551,-42.969,-41.992,-18.066
1789993444.561647,-50.781,-43.945,-41.992,-26.855
1789993444.565166,-69.824,-36.133,-53.223,-53.711
1789993444.568685,-59.570,-37.598,-55.176,-60.547
1789993444.572204,-36.133,-41.016,-52.246,-54.199
1789993444.575723,-33.691,-41.504,-48.340,-45.898
1789993444.579242,-48.828,-37.109,-41.504,-41.504
1789993444.582761,-64.453,-36.133,-40.527,-40.039
1789993444.586280,-51.758,-32.715,-38.574,-38.574
1789993444.589799,-26.855,-26.367,-36.133,-24.414
1789993444.594171,-46.875,-29.785,-37.109,-31.738
1789993444.597697,-73.242,-40.039,-38.086,-48.340
1789993444.601223,-58.105,-44.922,-36.621,-36.621
1789993444.604750,-35.645,-47.363,-37.109,-27.344
1789993444.608276,-53.223,-51.758,-43.945,-46.387
1789993444.611802,-77.148,-48.340,-47.363,-58.594
1789993444.615328,-67.871,-35.156,-46.387,-45.898
1789993444.618854,-40.039,-33.203,-47.363,-33.691
1789993444.622380,-36.621,-45.410,-47.363,-33.203
1789993444.625906,-61.523,-47.852,-42.480,-46.875
1789993444.629432,-54.688,-35.156,-40.039,-39.551
1789993444.632958,-4.883,-30.762,-41.016,-4.395
1789993444.638989,0.000,-43.457,0.000,-6.348
1789993444.642534,0.000,-44.922,0.000,-42.969
1789993444.646079,0.000,-38.574,0.000,-49.805
1789993444.649624,0.000,-44.922,0.000,-40.527
1789993444.653169,0.000,-47.852,0.000,-37.109
1789993444.656714,0.000,-42.480,0.000,-46.387
1789993444.660259,0.000,-32.715,0.000,-49.316
1789993444.663804,0.000,-30.762,0.000,-38.086
1789993444.667349,0.000,-42.480,0.000,-22.949
1789993444.670895,0.000,-45.410,0.000,-33.203
1789993444.674440,0.000,-42.969,0.000,-49.805
1789993444.677985,0.000,-47.852,0.000,-40.039
1789993444.683290,-49.805,-55.176,-9.277,-30.273
1789993444.686848,-49.316,-45.410,-13.184,-32.715
1789993444.690405,-68.359,-41.992,-23.438,-41.504
1789993444.693963,-67.871,-58.105,-21.973,-45.410
1789993444.697520,-44.434,-57.129,-16.113,-29.297
1789993444.701077,-37.109,-48.828,-19.531,-24.902
1789993444.704634,-64.453,-51.270,-20.996,-34.668
1789993444.708192,-66.895,-51.758,-30.762,-37.109
1789993444.711749,-45.898,-47.852,-38.086,-40.527
1789993444.715306,-28.320,-41.016,-32.227,-37.109
1789993444.718864,-36.133,-40.527,-35.156,-54.688
1789993444.722421,-56.641,-40.527,-34.180,-62.988
1789993444.727441,-39.062,-33.203,-32.227,-45.410
1789993444.731008,-25.879,-35.645,-35.645,-30.273
1789993444.734574,-38.086,-41.016,-38.086,-28.809
1789993444.738141,-49.316,-33.691,-31.738,-33.203
1789993444.741708,-45.898,-23.926,-25.879,-27.832
1789993444.745274,-26.855,-30.273,-30.762,-23.926
1789993444.748841,-27.832,-40.039,-32.715,-14.648
1789993444.752408,-47.363,-35.156,-35.645,-22.949
1789993444.755974,-60.059,-29.297,-31.738,-24.414
1789993444.759541,-45.410,-31.250,-24.414,-7.812
1789993444.763108,-31.738,-27.344,-27.832,-2.441
1789993444.766675,-55.176,-27.344,-29.785,-25.879
1789993444.772804,-74.219,-41.504,-31.738,-47.363
1789993444.776386,-60.547,-43.457,-35.156,-33.203
1789993444.779968,-43.457,-38.086,-38.086,-29.297
1789993444.783550,-55.176,-38.574,-35.156,-36.133
1789993444.787132,-68.359,-37.598,-36.133,-37.598
1789993444.790714,-58.105,-36.621,-32.715,-26.855
1789993444.794296,-27.832,-33.691,-27.832,-18.066
1789993444.797878,-33.691,-35.156,-35.156,-27.344
1789993444.801460,-58.594,-41.016,-36.621,-37.109
1789993444.805042,-55.664,-40.527,-34.180,-32.227
1789993444.808624,-31.250,-31.250,-31.250,-22.949
1789993444.812205,-21.973,-26.367,-30.762,-27.832
1789993444.817644,-45.898,-29.297,-34.668,-47.363
1789993444.821236,-47.363,-27.344,-32.715,-56.152
1789993444.824829,-31.250,-27.344,-30.273,-46.875
1789993444.828421,-16.602,-28.809,-19.043,-28.809
1789993444.832013,-30.273,-31.250,-20.996,-22.949
1789993444.835605,-49.316,-37.598,-30.762,-20.508
1789993444.839198,-47.852,-36.621,-29.785,-25.391
1789993444.842790,-29.785,-20.996,-37.598,-44.922
1789993444.846382,-38.086,-23.438,-45.898,-60.547
1789993444.849974,-67.383,-32.227,-42.969,-48.340
1789993444.853567,-60.059,-38.086,-45.898,-30.762
1789993444.857159,-41.016,-40.527,-49.805,-37.109
1789993444.863500,-38.086,-33.691,-41.992,-38.574
1789993444.867106,-47.363,-35.156,-42.969,-31.250
1789993444.870713,-45.410,-38.086,-41.016,-19.043
1789993444.874320,-24.414,-34.668,-38.086,-20.996
1789993444.877926,-15.625,-34.180,-46.875,-35.156
1789993444.881533,-34.180,-30.762,-45.898,-42.969
1789993444.885139,-47.363,-38.086,-43.457,-48.340
1789993444.888746,-35.156,-38.086,-45.898,-48.340
1789993444.892352,-23.926,-33.691,-49.316,-38.086
1789993444.895959,-43.457,-39.551,-50.293,-36.133
1789993444.899565,-57.129,-41.016,-50.781,-38.574
1789993444.903172,-46.875,-32.227,-46.875,-26.855
1789993444.908942,-24.902,-24.902,-43.457,-16.602
1789993444.912560,-30.762,-32.227,-44.922,-29.785
1789993444.916177,-52.734,-33.691,-44.922,-41.016
1789993444.919794,-53.711,-27.832,-43.945,-39.551
1789993444.923411,-26.367,-32.715,-38.086,-30.273
1789993444.927028,-22.461,-35.645,-37.109,-35.156
1789993444.930645,-57.617,-29.297,-45.410,-61.523
1789993444.934263,-63.477,-34.180,-44.434,-47.363
1789993444.937880,-40.039,-41.504,-39.062,-24.902
1789993444.941497,-24.902,-35.156,-33.203,-36.133
1789993444.945114,-45.898,-37.109,-35.156,-46.875
1789993444.948731,-64.453,-46.387,-39.551,-45.898
1789993444.955683,-48.828,-40.527,-41.992,-55.176
1789993444.959316,-30.762,-31.250,-48.828,-57.129
1789993444.962948,-49.805,-37.109,-46.875,-62.500
1789993444.966581,-66.406,-47.363,-42.480,-70.312
1789993444.970214,-53.711,-45.898,-40.039,-54.199
1789993444.973846,-33.203,-39.062,-39.551,-27.344
1789993444.977479,-43.457,-41.992,-39.551,-26.855
1789993444.981112,-74.219,-47.852,-43.945,-58.594
1789993444.984744,-63.477,-42.480,-40.527,-73.242
1789993444.988377,-31.250,-34.180,-31.738,-48.828
1789993444.992009,-26.855,-26.855,-34.180,-45.898
1789993444.995642,-41.504,-21.484,-30.273,-46.875
1789993445.000957,-43.945,-33.691,-33.691,-47.852
1789993445.004597,-25.879,-41.992,-42.969,-54.688
1789993445.008238,-8.301,-34.180,-46.875,-53.711
1789993445.011878,-34.180,-32.227,-44.434,-65.918
1789993445.015517,-49.316,-32.227,-40.039,-58.594
1789993445.019157,-40.039,-39.551,-51.270,-53.711
1789993445.022798,-30.273,-47.363,-53.223,-47.363
1789993445.026438,-39.062,-41.504,-46.387,-33.203
1789993445.030077,-65.430,-35.156,-40.527,-33.691
1789993445.033717,-54.199,-28.320,-36.621,-31.738
1789993445.037358,-22.949,-26.367,-35.645,-34.180
1789993445.040998,-25.391,-35.156,-31.738,-41.992
1789993445.047596,-44.922,-40.039,-32.227,-41.992
1789993445.051248,-45.898,-34.668,-33.691,-50.293
1789993445.054900,-29.785,-31.250,-40.527,-41.016
1789993445.058553,-20.508,-29.297,-42.480,-41.504
1789993445.062205,-38.086,-26.855,-40.527,-49.316
1789993445.065857,-55.176,-25.879,-41.504,-40.527
1789993445.069510,-40.039,-28.320,-29.785,-29.297
1789993445.073162,-23.926,-40.527,-30.273,-31.738
1789993445.076814,-30.762,-49.805,-42.480,-45.898
1789993445.080467,-49.805,-48.828,-35.645,-50.781
1789993445.084119,-67.871,-46.875,-25.391,-52.734
1789993445.087771,-49.805,-49.316,-22.949,-41.992
1789993445.094100,-50.293,-50.293,-22.461,-36.621
1789993445.097763,-78.125,-46.387,-23.438,-47.852
1789993445.101426,-75.195,-47.363,-21.973,-42.480
1789993445.105088,-50.293,-48.340,-20.996,-34.668
1789993445.108752,-53.223,-50.293,-26.855,-42.969
1789993445.112414,-71.777,-54.199,-28.320,-44.434
1789993445.116077,-72.754,-56.152,-24.414,-46.387
1789993445.119740,-52.246,-46.387,-19.531,-31.250
1789993445.123403,-43.945,-40.527,-23.438,-26.855
1789993445.127066,-71.289,-40.039,-29.785,-33.691
1789993445.130729,-80.078,-38.574,-30.762,-31.738
1789993445.134392,-65.430,-51.270,-31.250,-38.574
1789993445.140519,-41.016,-43.945,-25.879,-35.156
1789993445.144192,-45.410,-39.551,-18.555,-34.180
1789993445.147864,-70.312,-46.875,-26.367,-38.086
1789993445.151536,-52.734,-40.039,-34.668,-36.621
1789993445.155208,-30.762,-41.016,-28.809,-38.574
1789993445.158880,-43.457,-42.969,-27.344,-41.504
1789993445.162553,-52.734,-30.273,-21.973,-40.527
1789993445.166225,-48.340,-33.203,-22.949,-29.785
1789993445.169897,-27.832,-37.109,-27.344,-15.137
1789993445.173570,-26.367,-31.738,-32.715,-23.926
1789993445.177242,-62.500,-43.457,-39.551,-44.434
1789993445.180914,-68.359,-51.270,-42.969,-38.086
1789993445.186894,-35.645,-44.434,-28.809,-22.949
1789993445.190575,-18.555,-38.574,-21.484,-28.320
1789993445.194255,-41.992,-33.203,-26.855,-41.016
1789993445.197936,-59.570,-38.574,-20.020,-33.691
1789993445.201617,-49.316,-45.898,-21.973,-29.785
1789993445.205297,-28.320,-39.062,-29.785,-33.203
1789993445.208978,-43.945,-36.133,-32.715,-42.480
1789993445.212659,-65.918,-38.574,-30.762,-53.711
1789993445.216339,-55.664,-40.039,-26.367,-47.363
1789993445.220020,-36.133,-37.598,-24.414,-40.039
1789993445.223701,-43.457,-42.480,-30.762,-43.945
1789993445.227381,-59.570,-35.156,-32.715,-41.504
1789993445.234506,-51.270,-29.785,-29.785,-31.250
1789993445.238199,-30.762,-34.180,-35.156,-42.480
1789993445.241891,-29.297,-33.691,-34.180,-48.340
1789993445.245584,-54.688,-40.527,-30.273,-40.039
1789993445.249276,-55.176,-42.969,-28.809,-29.785
1789993445.252969,-39.062,-46.875,-32.715,-28.320
1789993445.256661,-35.156,-54.199,-38.086,-37.598
1789993445.260354,-47.852,-44.434,-30.273,-33.203
1789993445.264047,-55.664,-32.715,-21.973,-29.785
1789993445.267739,-39.551,-33.691,-23.438,-24.414
1789993445.271432,-19.531,-34.668,-28.809,-13.672
1789993445.275124,-38.574,-38.086,-36.133,-28.809
1789993445.280650,-70.312,-45.410,-49.805,-49.805
1789993445.284348,-61.035,-44.434,-48.340,-43.945
1789993445.288047,-37.598,-48.828,-43.945,-33.203
1789993445.291746,-48.340,-48.340,-45.410,-36.621
1789993445.295445,-63.477,-35.156,-39.062,-43.457
1789993445.299143,-57.617,-40.039,-40.527,-51.270
1789993445.302842,-41.992,-44.922,-39.062,-52.734
1789993445.306541,-27.344,-35.645,-31.738,-41.504
1789993445.310240,-46.875,-30.762,-31.738,-55.664
1789993445.313938,-69.336,-35.156,-39.551,-72.754
1789993445.317637,-57.129,-38.574,-43.945,-60.547
1789993445.321336,-39.062,-31.250,-39.062,-55.664
1789993445.326816,0.000,-27.344,-30.762,-58.105
1789993445.330520,0.000,-31.250,-38.574,-50.293
1789993445.334224,0.000,-36.133,-41.016,-48.340
1789993445.337929,0.000,-32.715,-38.574,-40.039
1789993445.341633,0.000,-29.297,-40.527,-42.969
1789993445.345338,0.000,-35.156,-33.691,-56.641
1789993445.349042,0.000,-32.715,-28.809,-42.480
1789993445.352746,0.000,-27.832,-30.762,-34.180
1789993445.356451,0.000,-31.250,-35.645,-43.457
1789993445.360155,0.000,-39.551,-47.852,-58.105
1789993445.363860,0.000,-42.480,-46.875,-59.082
1789993445.367564,0.000,-42.480,-39.062,-42.480
1789993445.372793,-25.391,-41.504,-38.086,-41.504
1789993445.376502,-57.129,-34.668,-41.016,-52.246
1789993445.380211,-70.312,-30.762,-39.551,-42.480
1789993445.383920,-43.945,-31.738,-31.738,-28.809
1789993445.387630,-26.855,-39.062,-35.645,-33.691
1789993445.391339,-42.480,-43.457,-38.574,-46.387
1789993445.395048,-56.152,-38.086,-34.668,-53.223
1789993445.398757,-41.992,-27.832,-33.691,-51.270
1789993445.402466,-27.832,-26.367,-34.180,-49.316
1789993445.406175,-35.645,-22.949,-31.738,-46.387
1789993445.409884,-51.270,-19.531,-29.297,-47.363
1789993445.413593,-50.293,-28.809,-34.180,-37.598
1789993445.419837,-28.320,-40.039,-41.504,-23.926
1789993445.423554,-33.691,-40.039,-44.922,-37.598
1789993445.427270,-64.941,-36.133,-45.410,-54.688
1789993445.430987,-64.453,-36.133,-49.805,-52.246
1789993445.434704,-39.551,-35.645,-47.363,-41.504
1789993445.438421,-35.156,-40.527,-42.480,-52.246
1789993445.442137,-58.105,-43.457,-42.969,-55.176
1789993445.445854,-68.359,-42.480,-44.922,-54.688
1789993445.449570,-46.875,-43.457,-44.434,-47.852
1789993445.453287,-31.250,-41.504,-36.621,-33.691
1789993445.457004,-62.500,-40.527,-36.621,-48.828
1789993445.460721,-68.848,-35.156,-38.086,-55.176
1789993445.466843,-47.363,-34.180,-35.645,-45.410
1789993445.470567,-26.367,-40.527,-36.621,-32.227
1789993445.474290,-29.297,-32.715,-39.062,-27.344
1789993445.478014,-54.199,-29.297,-44.434,-46.875
1789993445.481737,-50.781,-34.668,-40.527,-56.641
1789993445.485461,-29.297,-42.480,-37.109,-42.969
1789993445.489184,-27.832,-46.387,-41.016,-43.457
1789993445.492908,-48.828,-35.645,-41.016,-49.805
1789993445.496631,-52.734,-27.832,-41.016,-46.875
1789993445.500355,-31.738,-28.809,-39.551,-44.434
1789993445.504079,-13.184,-29.297,-35.645,-30.762
1789993445.507802,-21.973,-34.668,-31.738,-18.555
1789993445.513618,-36.621,-37.598,-28.320,-22.461
1789993445.517347,-15.137,-26.367,-29.785,-26.855
1789993445.521076,-2.441,-24.414,-37.598,-23.438
1789993445.524806,-22.461,-27.344,-34.180,-17.578
1789993445.528535,-34.180,-26.367,-27.832,-13.672
1789993445.532264,-27.832,-22.949,-28.320,-20.508
1789993445.535994,-1.465,-10.254,-28.320,-22.949
1789993445.539723,-12.695,-21.484,-35.156,-36.133
1789993445.543453,-42.969,-36.133,-33.691,-37.109
1789993445.547182,-41.992,-32.227,-26.855,-18.555
1789993445.550911,-23.926,-30.762,-23.438,-12.207
1789993445.554641,-21.484,-34.180,-33.203,-34.668
1789993445.560328,-44.434,-40.527,-41.992,-59.570
1789993445.564062,-42.480,-29.297,-31.738,-39.551
1789993445.567797,-19.043,-20.508,-32.715,-24.414
1789993445.571532,-14.648,-32.227,-37.109,-31.738
1789993445.575266,-38.086,-39.551,-31.250,-35.645
1789993445.579001,-55.176,-36.133,-40.039,-40.527
1789993445.582736,-37.109,-31.738,-39.551,-41.504
1789993445.586470,-7.812,-24.414,-27.344,-28.809
1789993445.590205,-27.832,-27.832,-32.227,-36.621
1789993445.593940,-51.758,-34.180,-41.016,-51.758
1789993445.597674,-37.109,-32.227,-45.898,-51.270
1789993445.601409,-24.414,-34.668,-41.504,-47.852
1789993445.607006,-34.668,-47.852,-41.992,-51.270
1789993445.610745,-48.340,-49.316,-46.387,-51.758
1789993445.614485,-28.320,-42.480,-47.852,-37.598
1789993445.618224,0.977,-37.598,-35.156,-22.461
1789993445.621964,-25.879,-42.480,-26.855,-35.645
1789993445.625704,-56.641,-44.922,-25.879,-43.457
1789993445.629443,-63.965,-48.828,-19.043,-47.852
1789993445.633183,-58.594,-53.711,-20.508,-38.086
1789993445.636922,-45.410,-52.734,-16.113,-26.855
1789993445.640661,-64.453,-61.523,-11.230,-42.480
1789993445.644401,-73.730,-60.547,-13.672,-57.617
1789993445.648140,-52.246,-57.129,-8.301,-46.387
1789993445.653607,0.000,-57.129,-6.348,-32.715
1789993445.657351,0.000,-55.664,-12.695,-39.551
1789993445.661095,0.000,-58.594,-14.648,-34.180
1789993445.664839,0.000,-62.012,-13.672,-28.809
1789993445.668583,0.000,-57.129,-13.184,-31.738
1789993445.672327,0.000,-48.828,-20.020,-33.203
1789993445.676070,0.000,-48.828,-17.578,-31.738
1789993445.679814,0.000,-44.434,-11.719,-25.391
1789993445.683558,0.000,-44.922,-20.020,-12.207
1789993445.687302,0.000,-53.223,-17.090,-2.930
1789993445.691046,0.000,-45.898,-3.906,-21.973
1789993445.694790,0.000,-35.645,-8.301,-30.273
1789993445.700038,-35.645,-50.293,-19.043,-36.133
1789993445.703785,-20.508,-62.500,-25.879,-39.551
1789993445.707533,-41.504,-54.688,-27.832,-37.109
1789993445.711280,-66.406,-50.781,-24.902,-41.504
1789993445.715028,-34.668,-42.969,-23.926,-32.227
1789993445.718776,-11.719,-40.527,-21.484,-22.461
1789993445.722523,-27.344,-47.363,-22.461,-17.578
1789993445.726271,-50.293,-43.945,-20.020,-40.527
1789993445.730018,-60.059,-44.922,-22.461,-43.945
1789993445.733766,-38.574,-50.781,-22.461,-13.672
1789993445.737513,-31.738,-42.969,-23.926,-23.926
1789993445.741261,-55.664,-41.016,-27.832,-50.293
1789993445.746386,-54.199,-50.781,-23.926,-41.992
1789993445.750137,-28.320,-39.551,-24.414,-27.344
1789993445.753888,-22.461,-27.344,-26.855,-34.668
1789993445.757639,-41.992,-33.691,-29.297,-44.922
1789993445.761389,-43.945,-39.062,-22.461,-43.945
1789993445.765141,-28.809,-37.109,-21.973,-35.156
1789993445.768891,-14.160,-32.227,-26.855,-35.156
1789993445.772642,-29.297,-31.738,-26.367,-47.852
1789993445.776393,-46.875,-30.273,-29.297,-55.664
1789993445.780144,-39.551,-28.809,-30.273,-53.223
1789993445.783895,-19.043,-26.367,-28.809,-36.621
1789993445.787645,-26.855,-26.367,-28.809,-22.461
1789993445.793570,-55.176,-27.344,-32.715,-31.738
1789993445.797326,-57.617,-34.180,-41.504,-35.645
1789993445.801082,-34.668,-31.250,-38.086,-20.508
1789993445.804838,-26.855,-34.668,-41.016,-26.855
1789993445.808594,-51.758,-40.527,-47.852,-54.688
1789993445.812350,-53.711,-29.785,-39.062,-59.082
1789993445.816105,-35.156,-22.949,-31.250,-45.898
1789993445.819861,-26.367,-28.809,-27.344,-37.109
1789993445.823617,-43.945,-36.133,-30.762,-46.875
1789993445.827373,-55.664,-39.062,-33.203,-54.688
1789993445.831129,-39.551,-40.527,-29.785,-42.969
1789993445.834885,-20.508,-44.922,-32.227,-37.109
1789993445.840688,0.000,-48.340,-39.062,-44.922
1789993445.844448,0.000,-37.598,-40.039,-45.898
1789993445.848209,0.000,-31.738,-38.086,-37.598
1789993445.851969,0.000,-40.527,-32.715,-15.137
1789993445.855730,0.000,-38.574,-36.133,-27.344
1789993445.859490,0.000,-28.809,-42.969,-52.246
1789993445.863251,0.000,-21.973,-38.574,-41.016
1789993445.867011,0.000,-20.508,-29.785,-23.438
1789993445.870772,0.000,-29.785,-30.273,-28.320
1789993445.874532,0.000,-32.227,-39.551,-47.363
1789993445.878293,0.000,-23.926,-39.062,-53.223
1789993445.882053,0.000,-27.832,-40.039,-44.922
1789993445.887580,-24.414,-39.062,-40.527,-43.457
1789993445.891345,-36.133,-28.320,-28.809,-57.129
1789993445.895109,-50.781,-21.484,-26.367,-53.711
1789993445.898873,-43.945,-32.715,-35.156,-52.246
1789993445.902637,-21.973,-32.227,-43.457,-51.270
1789993445.906402,-25.879,-33.691,-48.340,-50.781
1789993445.910166,-41.992,-29.785,-44.434,-55.176
1789993445.913931,-38.086,-26.367,-37.598,-47.852
1789993445.917695,-16.602,-26.855,-34.668,-22.461
1789993445.921459,-18.555,-29.297,-33.691,-11.719
1789993445.925224,-39.062,-33.691,-22.949,-34.180
1789993445.928988,-50.293,-33.691,-28.320,-41.992
1789993445.934394,-33.203,-33.203,-29.297,-28.320
1789993445.938162,-24.902,-29.785,-32.227,-36.133
1789993445.941930,-49.316,-32.715,-43.945,-58.594
1789993445.945698,-50.781,-38.574,-40.039,-57.617
1789993445.949466,-29.785,-37.598,-42.480,-34.180
1789993445.953233,-8.789,-39.062,-47.852,-14.160
1789993445.957001,-24.902,-44.434,-46.875,-18.066
1789993445.960769,-42.480,-41.992,-37.598,-11.719
1789993445.964537,-29.785,-30.762,-32.715,-10.254
1789993445.968305,-9.766,-22.461,-39.062,-15.625
1789993445.972073,-31.250,-28.320,-35.645,-18.555
1789993445.975841,-58.594,-29.785,-31.738,-41.504
1789993445.981137,-55.176,-28.320,-38.086,-56.641
1789993445.984908,-43.457,-44.434,-49.316,-57.129
1789993445.988679,-40.527,-48.828,-58.105,-62.988
1789993445.992450,-60.059,-43.457,-51.758,-68.848
1789993445.996221,-61.035,-42.969,-48.340,-62.500
1789993445.999992,-41.992,-40.527,-54.688,-43.945
1789993446.003763,-30.273,-39.551,-53.711,-38.574
1789993446.007534,-46.875,-29.785,-50.781,-34.668
1789993446.011305,-50.781,-20.508,-49.316,-32.715
1789993446.015076,-41.504,-35.645,-44.434,-48.340
1789993446.018847,-48.340,-53.711,-36.621,-55.176
1789993446.022618,-58.594,-48.828,-34.668,-51.758
1789993446.027794,-72.754,-40.527,-32.715,-49.316
1789993446.031568,-58.105,-36.621,-28.809,-40.527
1789993446.035342,-29.297,-33.203,-32.227,-37.598
1789993446.039115,-34.180,-33.691,-34.180,-41.992
1789993446.042889,-51.758,-39.062,-34.668,-39.062
1789993446.046663,-43.945,-34.668,-38.086,-35.156
1789993446.050437,-13.672,-30.762,-36.621,-15.625
1789993446.054211,-18.555,-28.809,-27.344,-1.465
1789993446.057985,-54.199,-34.668,-26.855,-26.855
1789993446.061759,-53.223,-40.039,-27.832,-32.227
1789993446.065533,-24.414,-31.250,-23.926,-15.625
1789993446.069306,-19.531,-30.762,-34.180,-19.043
1789993446.074393,-45.410,-37.109,-38.574,-27.344
1789993446.078169,-59.570,-38.086,-38.086,-38.574
1789993446.081945,-38.574,-29.785,-35.645,-36.133
1789993446.085722,-16.602,-33.691,-32.715,-18.066
1789993446.089499,-32.227,-35.156,-35.645,-39.551
1789993446.093275,-54.199,-40.039,-32.715,-62.012
1789993446.097051,-50.781,-45.410,-35.156,-55.664
1789993446.100828,-30.762,-37.109,-36.621,-46.387
1789993446.104604,-35.645,-38.086,-36.621,-50.293
1789993446.108381,-55.176,-40.527,-30.762,-47.852
1789993446.112157,-50.781,-37.598,-25.391,-42.969
1789993446.115934,-20.020,-33.691,-31.250,-41.992
1789993446.120823,-12.207,-36.133,-31.738,-35.645
1789993446.124602,-38.086,-37.598,-37.598,-46.875
1789993446.128380,-47.363,-31.250,-38.574,-48.340
1789993446.132159,-36.133,-29.785,-31.250,-33.203
1789993446.135938,-20.508,-40.039,-30.762,-25.391
1789993446.139716,-34.668,-38.574,-33.203,-25.391
1789993446.143495,-54.199,-36.621,-32.715,-41.016
1789993446.147274,-45.898,-43.457,-36.133,-55.664
1789993446.151052,-32.227,-39.062,-37.598,-45.410
1789993446.154831,-42.969,-37.598,-38.574,-45.898
1789993446.158610,-61.523,-39.551,-35.156,-54.688
1789993446.162388,-61.523,-37.598,-36.133,-47.852
1789993446.168195,-41.504,-43.457,-41.016,-34.180
1789993446.171977,-39.551,-39.062,-37.109,-38.086
1789993446.175760,-60.547,-28.320,-36.621,-53.711
1789993446.179542,-60.059,-31.250,-37.109,-56.152
1789993446.183325,-37.598,-35.645,-37.598,-41.016
1789993446.187107,-27.832,-34.180,-48.340,-38.574
1789993446.190890,-54.199,-41.016,-49.805,-53.223
1789993446.194672,-63.965,-40.527,-45.898,-52.246
1789993446.198455,-46.875,-39.062,-47.363,-34.180
1789993446.202237,-29.297,-44.922,-50.781,-31.738
1789993446.206020,-46.875,-47.852,-52.734,-61.523
1789993446.209802,-61.523,-40.527,-43.457,-70.312
1789993446.215291,-41.016,-21.973,-32.715,-57.129
1789993446.219077,-16.602,-24.414,-31.738,-44.434
1789993446.222862,-34.668,-37.598,-41.016,-48.828
1789993446.226648,-63.477,-45.410,-52.734,-62.500
1789993446.230433,-56.641,-43.457,-50.781,-57.129
1789993446.234219,-29.297,-34.180,-39.062,-35.645
1789993446.238005,-25.879,-32.715,-35.645,-28.809
1789993446.241791,-46.387,-32.715,-37.598,-55.664
1789993446.245576,-53.223,-27.832,-40.039,-58.105
1789993446.249362,-34.668,-27.344,-41.992,-44.434
1789993446.253147,-22.461,-35.156,-38.574,-43.457
1789993446.256933,-45.898,-44.434,-39.551,-43.945
1789993446.262243,-61.035,-44.434,-41.992,-51.270
1789993446.266032,-50.293,-42.480,-41.016,-50.781
1789993446.269820,-22.461,-37.109,-36.621,-34.180
1789993446.273608,-10.254,-31.738,-30.273,-28.809
1789993446.277397,-39.551,-36.621,-26.367,-45.410
1789993446.281185,-47.363,-34.668,-23.926,-56.152
1789993446.284973,-22.949,-27.832,-20.020,-49.805
1789993446.288762,-38.086,-42.969,-23.926,-51.270
1789993446.292550,-57.617,-53.711,-18.555,-51.758
1789993446.296339,-59.570,-54.688,-10.742,-44.922
1789993446.300127,-42.969,-58.594,-16.113,-37.109
1789993446.303916,-28.320,-50.293,-15.137,-29.785
1789993446.309263,0.000,-44.434,-10.254,-31.738
1789993446.313054,0.000,-49.805,-13.184,-36.133
1789993446.316845,0.000,-57.617,-15.137,-27.344
1789993446.320636,0.000,-59.570,-13.184,-11.230
1789993446.324427,0.000,-57.617,-12.207,-16.602
1789993446.328218,0.000,-52.246,-11.230,-20.996
1789993446.332010,0.000,-43.457,-23.438,-22.461
1789993446.335801,0.000,-38.086,-27.832,-9.277
1789993446.339592,0.000,-33.691,-21.484,-13.184
1789993446.343383,0.000,-28.809,-22.461,-26.855
1789993446.347174,0.000,-46.387,-32.715,-29.297
1789993446.350965,0.000,-54.199,-39.551,-46.875
1789993446.356079,-20.020,-44.434,-35.645,-57.129
1789993446.359873,-42.480,-41.992,-28.809,-60.547
1789993446.363666,-42.969,-40.527,-29.297,-49.316
1789993446.367460,-21.973,-40.527,-26.367,-22.461
1789993446.371253,-19.043,-38.086,-32.715,-15.625
1789993446.375047,-41.992,-41.016,-42.480,-27.344
1789993446.378840,-42.969,-44.922,-41.992,-37.598
1789993446.382634,-28.320,-48.340,-42.969,-33.691
1789993446.386427,-13.184,-51.270,-37.598,-29.297
1789993446.390221,-27.832,-47.363,-32.715,-40.039
1789993446.394014,-41.016,-46.875,-34.668,-31.250
1789993446.397808,-27.344,-50.781,-39.062,-14.160
1789993446.402748,-11.719,-46.875,-33.203,-13.184
1789993446.406543,-21.484,-38.574,-36.133,-29.785
1789993446.410339,-34.668,-34.668,-39.062,-20.508
1789993446.414135,-26.367,-41.016,-34.180,-11.719
1789993446.417930,-6.348,-46.875,-33.203,-6.348
1789993446.421725,-6.836,-43.945,-38.086,-8.301
1789993446.425521,-26.367,-39.062,-38.086,-21.973
1789993446.429316,-32.715,-35.156,-33.203,-28.320
1789993446.433112,-14.160,-34.180,-37.109,-25.391
1789993446.436907,-7.812,-33.691,-36.621,-17.090
1789993446.440702,-36.621,-32.715,-25.879,-31.250
1789993446.444498,-46.875,-40.039,-25.391,-47.852
1789993446.449341,-30.762,-39.062,-24.902,-37.109
1789993446.453138,-15.137,-31.738,-19.531,-23.926
1789993446.456935,-29.785,-29.785,-26.367,-36.133
1789993446.460732,-52.246,-33.691,-37.598,-49.805
1789993446.464530,-46.387,-40.039,-39.062,-46.875
1789993446.468327,-24.902,-32.715,-36.133,-28.809
1789993446.472124,-32.715,-23.926,-36.133,-34.180
1789993446.475921,-47.852,-30.762,-41.992,-50.293
1789993446.479718,-39.551,-41.016,-45.410,-41.992
1789993446.483516,-19.043,-33.203,-37.598,-28.809
1789993446.487313,-22.461,-27.344,-30.273,-29.297
1789993446.491110,-40.039,-31.738,-31.738,-32.227
1789993446.495863,-36.133,-29.297,-25.391,-17.090
1789993446.499661,-15.137,-32.227,-26.855,-12.695
1789993446.503460,-3.418,-27.832,-36.133,-29.785
1789993446.507259,-27.832,-20.508,-29.297,-43.945
1789993446.511058,-40.527,-34.180,-28.320,-41.504
1789993446.514856,-23.926,-41.992,-40.527,-41.992
1789993446.518655,-8.301,-32.715,-37.109,-38.574
1789993446.522454,-24.902,-31.738,-26.367,-37.598
1789993446.526253,-41.992,-31.738,-29.297,-36.621
1789993446.530051,-35.156,-29.297,-34.180,-35.156
1789993446.533850,-20.996,-39.551,-28.809,-34.180
1789993446.537649,-30.273,-43.457,-26.855,-43.457
1789993446.543034,-60.059,-32.715,-28.809,-54.688
1789993446.546836,-45.898,-25.879,-26.855,-35.645
1789993446.550637,-22.949,-30.273,-31.738,-17.090
1789993446.554438,-28.320,-30.273,-39.062,-28.320
1789993446.558239,-43.945,-24.414,-39.062,-36.621
1789993446.562041,-51.270,-29.785,-37.109,-35.156
1789993446.565842,-32.715,-24.902,-35.156,-25.879
1789993446.569643,-15.137,-22.949,-32.715,-17.578
1789993446.573445,-38.574,-24.414,-36.621,-29.785
1789993446.577246,-51.758,-30.762,-36.621,-39.551
1789993446.581047,-37.109,-42.480,-32.227,-40.039
1789993446.584848,-17.578,-40.039,-36.133,-24.902
1789993446.590103,-17.578,-31.738,-31.738,-26.855
1789993446.593907,-44.922,-24.902,-35.156,-54.688
1789993446.597710,-46.875,-30.762,-42.480,-58.105
1789993446.601514,-25.391,-37.598,-37.598,-34.180
1789993446.605317,-32.715,-37.598,-40.527,-35.645
1789993446.609121,-51.270,-37.598,-47.363,-47.852
1789993446.612925,-47.852,-31.738,-42.969,-36.621
1789993446.616728,-25.879,-24.902,-43.457,-18.066
1789993446.620532,-19.531,-32.715,-43.945,-20.508
1789993446.624335,-42.480,-40.039,-42.969,-34.180
1789993446.628139,-51.270,-37.598,-53.711,-32.715
1789993446.631942,-25.391,-31.738,-48.340,-25.879
1789993446.637062,-13.672,-35.156,-47.363,-30.762
1789993446.640867,-41.992,-41.504,-48.828,-40.039
1789993446.644673,-60.059,-39.551,-51.758,-43.457
1789993446.648479,-41.992,-25.391,-53.711,-41.504
1789993446.652284,-15.625,-20.996,-52.246,-37.109
1789993446.656090,-30.762,-30.273,-49.805,-38.086
1789993446.659895,-49.805,-31.250,-43.945,-43.457
1789993446.663701,-39.062,-27.832,-42.969,-39.551
1789993446.667507,-22.461,-28.809,-43.945,-24.902
1789993446.671312,-32.715,-34.180,-37.598,-29.297
1789993446.675118,-51.758,-33.691,-35.156,-49.805
1789993446.678923,-44.922,-31.250,-40.527,-44.922
1789993446.683960,-22.949,-24.902,-36.133,-28.320
1789993446.687767,-26.855,-36.621,-42.969,-40.527
1789993446.691575,-47.363,-45.898,-44.434,-46.387
1789993446.695382,-49.805,-37.109,-39.062,-39.551
1789993446.699190,-36.621,-31.250,-42.969,-32.715
1789993446.702997,-25.391,-32.715,-41.992,-22.461
1789993446.706805,-39.551,-36.621,-40.039,-37.109
1789993446.710612,-47.852,-41.992,-43.945,-54.199
1789993446.714419,-35.645,-38.086,-41.504,-55.176
1789993446.718227,-19.043,-21.973,-32.715,-41.992
1789993446.722034,-30.762,-21.484,-33.203,-30.273
1789993446.725842,-44.434,-28.809,-34.180,-32.227
1789993446.730757,-29.297,-28.320,-45.898,-35.156
1789993446.734567,-12.207,-28.809,-47.852,-37.109
1789993446.738376,-25.391,-37.109,-37.598,-41.992
1789993446.742185,-60.059,-40.039,-44.434,-62.988
1789993446.745994,-59.570,-35.645,-46.387,-60.059
1789993446.749803,-33.203,-32.227,-42.480,-41.992
1789993446.753612,-26.855,-34.668,-37.598,-47.363
1789993446.757421,-47.852,-39.551,-37.598,-56.641
1789993446.761230,-55.176,-32.227,-37.109,-48.340
1789993446.765039,-42.480,-28.320,-36.133,-41.016
1789993446.768849,-27.832,-37.109,-39.062,-28.320
1789993446.772658,-39.062,-45.898,-39.551,-25.391
1789993446.777530,-51.270,-46.387,-42.969,-38.574
1789993446.781340,-28.809,-35.156,-37.598,-36.133
1789993446.785151,-11.719,-29.297,-33.203,-35.645
1789993446.788962,-22.461,-32.227,-32.227,-43.457
1789993446.792772,-40.527,-35.645,-32.227,-45.410
1789993446.796583,-40.527,-33.203,-41.016,-49.805
1789993446.800394,-13.672,-27.832,-41.992,-37.598
1789993446.804204,-13.672,-30.762,-42.480,-21.484
1789993446.808015,-37.109,-41.016,-52.734,-36.133
1789993446.811826,-47.852,-35.645,-50.781,-54.688
1789993446.815636,-32.715,-23.926,-50.781,-49.316
1789993446.819447,-13.672,-20.508,-50.781,-35.645
1789993446.824265,-37.109,-19.531,-41.016,-46.875
1789993446.828077,-55.176,-27.832,-48.828,-47.363
1789993446.831889,-42.480,-33.203,-54.199,-29.785
1789993446.835701,-20.508,-29.785,-46.875,-29.785
1789993446.839514,-32.227,-21.484,-42.480,-47.852
1789993446.843326,-49.316,-18.066,-35.645,-48.340
1789993446.847138,-44.922,-37.598,-37.598,-28.809
1789993446.850950,-26.855,-45.410,-41.504,-19.531
1789993446.854762,-30.762,-32.227,-38.574,-37.598
1789993446.858574,-51.758,-27.832,-29.785,-42.969
1789993446.862386,-50.293,-35.156,-32.715,-36.133
1789993446.866198,-24.902,-31.738,-40.527,-26.855
1789993446.870927,-16.602,-21.973,-42.480,-23.438
1789993446.874740,-41.992,-25.879,-41.992,-38.086
1789993446.878554,-48.828,-40.527,-43.945,-43.945
1789993446.882367,-25.391,-41.992,-45.410,-37.598
1789993446.886181,-12.695,-36.133,-39.551,-40.527
1789993446.889994,-26.855,-36.621,-36.133,-43.945
1789993446.893807,-39.551,-35.156,-38.574,-34.668
1789993446.897621,-32.715,-36.621,-41.016,-34.668
1789993446.901434,-8.789,-39.551,-41.016,-24.414
1789993446.905248,-27.344,-37.598,-41.992,-25.879
1789993446.909061,-49.805,-32.715,-37.109,-40.039
1789993446.912874,-36.621,-31.250,-33.691,-36.133
1789993446.918105,-16.602,-30.762,-33.203,-27.344
1789993446.921920,-21.973,-35.645,-35.156,-34.180
1789993446.925735,-48.340,-40.527,-32.227,-47.852
1789993446.929551,-52.246,-41.504,-30.273,-46.387
1789993446.933366,-31.250,-50.293,-38.574,-48.828
1789993446.937181,-25.391,-50.293,-41.504,-45.410
1789993446.940997,-41.992,-39.551,-40.527,-39.551
1789993446.944812,-41.992,-35.645,-37.598,-35.645
1789993446.948627,-15.625,-31.250,-37.598,-22.461
1789993446.952443,23.438,-25.391,-34.180,5.371
1789993446.956258,-0.488,-29.785,-26.367,-7.324
1789993446.960074,-44.922,-41.992,-27.832,-58.105
1789993446.965236,-38.086,-49.805,-24.902,-54.688
1789993446.969053,-18.066,-43.457,-20.508,-32.715
1789993446.972870,-26.855,-44.922,-18.066,-29.785
1789993446.976688,-47.363,-48.828,-13.184,-28.809
1789993446.980505,-41.016,-48.828,-2.930,-36.133
1789993446.984322,-20.020,-51.270,4.395,-32.227
1789993446.988139,-20.020,-50.781,1.953,-24.414
1789993446.991956,-40.527,-57.617,-2.441,-27.832
1789993446.995774,-46.875,-60.547,-9.277,-25.879
1789993446.999591,-39.551,-61.035,-19.531,-25.391
1789993447.003408,-37.109,-56.152,-18.555,-38.086
1789993447.007225,-44.434,-50.293,-8.301,-33.203
1789993447.012303,0.000,-52.246,-11.230,-25.391
1789993447.016122,0.000,-46.387,-10.742,-28.809
1789993447.019941,0.000,-42.480,-9.766,-20.996
1789993447.023760,0.000,-45.410,-17.578,-25.879
1789993447.027579,0.000,-50.293,-17.578,-23.438
1789993447.031398,0.000,-58.594,-21.484,-8.789
1789993447.035217,0.000,-57.617,-31.738,-23.438
1789993447.039036,0.000,-52.734,-28.320,-40.039
1789993447.042855,0.000,-51.270,-21.484,-29.785
1789993447.046674,0.000,-47.363,-19.531,-26.855
1789993447.050493,0.000,-46.875,-20.996,-19.043
1789993447.054311,0.000,-48.828,-23.438,-18.066
1789993447.059227,-31.250,-45.898,-17.090,-24.414
1789993447.063048,-40.527,-42.969,-17.090,-22.461
1789993447.066868,-20.996,-38.086,-24.902,-19.043
1789993447.070689,-17.578,-42.480,-30.273,-21.973
1789993447.074509,-32.715,-44.434,-26.855,-20.020
1789993447.078329,-41.992,-37.598,-26.367,-18.066
1789993447.082150,-30.762,-40.039,-36.133,-39.551
1789993447.085970,-14.160,-42.480,-38.574,-38.086
1789993447.089790,-22.949,-33.691,-40.039,-25.879
1789993447.093611,-42.480,-33.691,-39.551,-37.109
1789993447.097431,-31.250,-44.922,-33.691,-36.133
1789993447.101251,-9.277,-45.410,-30.762,-20.020
1789993447.106121,-19.043,-37.109,-35.645,-27.832
1789993447.109943,-35.645,-30.762,-36.621,-40.527
1789993447.113764,-29.785,-35.156,-41.504,-38.086
1789993447.117586,-11.230,-42.480,-44.434,-38.086
1789993447.121408,-16.602,-46.387,-36.133,-42.480
1789993447.125229,-42.480,-38.574,-32.227,-45.898
1789993447.129051,-46.875,-36.621,-36.133,-42.480
1789993447.132873,-27.832,-44.922,-38.086,-34.180
1789993447.136695,-14.648,-42.969,-33.203,-25.391
1789993447.140516,-25.879,-38.086,-29.297,-27.832
1789993447.144338,-32.715,-27.344,-24.902,-34.180
1789993447.148160,-20.508,-30.762,-22.461,-19.043
1789993447.152864,-2.930,-38.086,-18.555,-5.371
1789993447.156687,-16.113,-32.227,-20.996,-8.789
1789993447.160510,-32.227,-28.320,-28.320,-18.066
1789993447.164333,-28.320,-32.227,-26.367,-28.809
1789993447.168156,-14.160,-38.574,-14.648,-21.484
1789993447.171979,-12.695,-34.180,-19.043,-24.902
1789993447.175802,-33.691,-32.227,-32.715,-26.367
1789993447.179624,-34.180,-36.133,-31.738,-28.809
1789993447.183447,-15.137,-44.922,-29.297,-39.551
1789993447.187270,-10.254,-40.039,-35.645,-36.621
1789993447.191093,-27.832,-27.832,-35.645,-40.527
1789993447.194916,-27.344,-36.133,-28.809,-42.480
1789993447.199639,-13.184,-42.480,-29.297,-31.738
1789993447.203463,-9.766,-36.133,-27.344,-21.484
1789993447.207287,-31.738,-22.949,-26.855,-35.156
1789993447.211111,-48.340,-19.043,-32.227,-48.340
1789993447.214935,-33.691,-24.902,-34.668,-41.016
1789993447.218759,-15.625,-21.973,-40.039,-37.598
1789993447.222583,-32.715,-28.809,-45.898,-53.711
1789993447.226407,-48.828,-33.203,-37.598,-56.152
1789993447.230231,-34.180,-34.180,-37.109,-37.109
1789993447.234055,-16.113,-34.180,-41.016,-20.020
1789993447.237879,-14.648,-34.668,-35.645,-20.996
1789993447.241703,-31.250,-23.926,-30.273,-36.133
1789993447.247452,-36.133,-15.137,-32.227,-45.410
1789993447.251278,-12.695,-16.113,-28.320,-44.434
1789993447.255104,-4.395,-16.602,-24.902,-39.551
1789993447.258931,-38.086,-33.691,-35.156,-52.246
1789993447.262757,-50.293,-41.504,-42.969,-53.223
1789993447.266583,-28.320,-36.621,-43.945,-30.762
1789993447.270410,-20.996,-37.109,-44.434,-22.461
1789993447.274236,-38.574,-32.715,-42.969,-37.109
1789993447.278063,-49.316,-24.902,-40.527,-40.039
1789993447.281889,-37.598,-27.832,-40.527,-30.273
1789993447.285715,-23.438,-30.273,-45.410,-37.598
1789993447.289542,-37.598,-30.762,-41.992,-43.945
1789993447.294572,-48.828,-31.250,-36.621,-37.109
1789993447.298400,-36.621,-24.902,-34.668,-34.180
1789993447.302228,-22.949,-21.484,-37.598,-32.227
1789993447.306056,-24.414,-30.273,-51.270,-32.227
1789993447.309884,-42.969,-44.922,-55.176,-34.180
1789993447.313712,-40.527,-53.223,-44.434,-34.668
1789993447.317539,-12.695,-41.016,-39.062,-25.391
1789993447.321367,-13.184,-29.297,-48.828,-21.484
1789993447.325195,-34.180,-32.227,-49.805,-32.227
1789993447.329023,-32.227,-25.391,-39.062,-26.367
1789993447.332851,-20.508,-30.273,-41.016,-18.066
1789993447.336679,-18.555,-48.340,-41.504,-20.996
1789993447.341629,-41.504,-46.387,-39.062,-32.715
1789993447.345458,-63.477,-45.898,-46.387,-45.898
1789993447.349287,-54.688,-48.828,-41.992,-34.668
1789993447.353116,-24.414,-33.203,-40.039,-34.668
1789993447.356945,-35.156,-25.879,-47.852,-58.105
1789993447.360775,-57.129,-38.086,-45.410,-64.453
1789993447.364604,-46.875,-39.062,-42.480,-47.363
1789993447.368433,-28.320,-36.133,-41.016,-33.203
1789993447.372262,-22.949,-39.062,-35.156,-23.438
1789993447.376091,-45.410,-30.762,-35.156,-23.926
1789993447.379921,-55.664,-23.926,-39.062,-43.945
1789993447.383750,-42.480,-28.320,-44.922,-42.969
1789993447.388580,-32.227,-35.156,-45.410,-29.785
1789993447.392410,-49.316,-34.180,-40.527,-37.598
1789993447.396241,-56.152,-32.715,-42.480,-40.527
1789993447.400071,-38.574,-31.738,-45.410,-31.738
1789993447.403902,-24.414,-33.691,-47.363,-26.367
1789993447.407732,-46.875,-39.551,-52.734,-42.480
1789993447.411562,-60.547,-34.668,-41.992,-43.457
1789993447.415393,-41.016,-30.762,-35.645,-34.180
1789993447.419223,-19.043,-40.039,-39.062,-39.062
1789993447.423054,-20.996,-30.273,-38.574,-42.969
1789993447.426884,-43.945,-16.602,-30.762,-51.758
1789993447.430714,-40.527,-20.508,-25.879,-57.617
1789993447.435533,-20.020,-22.461,-29.785,-37.598
1789993447.439364,-22.461,-25.879,-38.574,-29.297
1789993447.443196,-39.062,-27.832,-42.969,-41.992
1789993447.447027,-45.898,-30.273,-42.969,-36.133
1789993447.450859,-29.297,-38.086,-42.969,-22.461
1789993447.454690,0.977,-37.598,-41.504,-13.184
1789993447.458522,-11.230,-29.785,-40.527,-16.602
1789993447.462353,-39.551,-22.949,-44.922,-37.109
1789993447.466185,-32.227,-19.043,-53.711,-44.434
1789993447.470016,-13.184,-11.230,-59.570,-37.598
1789993447.473848,-31.738,-6.836,-66.406,-50.293
1789993447.477680,-48.828,-9.766,-78.125,-52.246
1789993447.482401,-37.598,-5.371,-85.938,-48.828
1789993447.486233,-15.625,3.418,-84.473,-40.527
1789993447.490066,-20.020,0.977,-92.285,-46.387
1789993447.493899,-46.875,6.348,-98.145,-65.430
1789993447.497731,-39.062,13.672,-103.516,-60.547
1789993447.501564,-3.418,16.113,-106.934,-56.152
1789993447.505397,1.465,19.531,-116.211,-68.848
1789993447.509229,-9.766,20.020,-129.395,-73.730
1789993447.513062,-13.184,17.090,-120.605,-69.824
1789993447.516894,6.348,20.020,-115.234,-54.688
1789993447.520727,44.434,32.227,-112.305,-31.250
1789993447.524559,23.438,33.203,-107.910,-39.551
1789993447.529147,2.930,33.691,-105.957,-37.598
1789993447.532981,10.742,29.785,-101.074,-23.438
1789993447.536814,21.484,21.484,-97.168,-17.090
1789993447.540648,10.254,17.090,-101.074,-37.109
1789993447.544481,-8.301,9.277,-104.980,-55.664
1789993447.548315,-4.883,8.301,-92.773,-42.480
1789993447.552148,14.160,6.836,-84.473,-27.832
1789993447.555981,11.719,3.906,-78.125,-23.438
1789993447.559815,-18.066,-0.488,-75.195,-32.227
1789993447.563648,-15.137,3.418,-80.566,-31.738
1789993447.567482,11.719,9.766,-74.707,-23.438
1789993447.571315,14.648,6.836,-66.895,-22.949
1789993447.575827,-12.695,-7.324,-73.242,-34.180
1789993447.579662,-24.902,-7.812,-71.777,-36.621
1789993447.583496,-4.883,-8.301,-65.918,-29.297
1789993447.587330,9.766,-18.555,-69.824,-29.297
1789993447.591164,-11.719,-11.230,-66.406,-34.180
1789993447.594999,-27.344,-9.277,-64.941,-39.551
1789993447.598833,-17.090,-14.648,-68.848,-40.527
1789993447.602667,-0.488,-11.719,-72.266,-30.762
1789993447.606501,-7.324,-11.719,-65.430,-29.297
1789993447.610335,-27.832,-16.113,-59.082,-36.133
1789993447.614170,-22.461,-17.578,-61.523,-33.203
1789993447.618004,-2.441,-20.996,-65.918,-21.484
1789993447.623039,-4.883,-22.949,-63.477,-24.414
1789993447.626875,-20.508,-18.555,-56.641,-31.738
1789993447.630710,-20.508,-18.555,-52.734,-28.809
1789993447.634546,-8.301,-27.344,-52.246,-29.785
1789993447.638381,-4.395,-26.367,-57.129,-33.203
1789993447.642217,-23.438,-19.531,-56.641,-36.621
1789993447.646052,-34.180,-22.461,-51.758,-32.227
1789993447.649888,-11.719,-28.320,-53.223,-28.320
1789993447.653723,1.465,-31.738,-55.176,-25.879
1789993447.657559,-23.926,-24.902,-55.664,-35.645
1789993447.661395,-36.621,-20.508,-52.734,-44.434
1789993447.665230,-23.926,-23.926,-47.852,-40.527
1789993447.670118,-6.348,-22.949,-49.805,-25.879
1789993447.673955,-10.742,-15.137,-57.617,-27.832
1789993447.677791,-32.715,-20.996,-61.523,-51.758
1789993447.681628,-30.273,-31.250,-57.617,-46.387
1789993447.685465,-9.766,-30.762,-55.176,-35.156
1789993447.689301,1.953,-24.902,-52.246,-36.621
1789993447.693138,-20.508,-24.414,-48.828,-44.434
1789993447.696975,-28.320,-23.926,-49.805,-42.969
1789993447.700812,-1.465,-14.160,-51.270,-23.438
1789993447.704648,1.465,-20.020,-51.758,-24.414
1789993447.708485,-28.809,-35.156,-49.805,-39.062
1789993447.712322,-47.852,-37.109,-50.781,-41.504
1789993447.717209,-33.203,-29.297,-55.664,-40.527
1789993447.721047,-14.648,-29.785,-54.688,-32.715
1789993447.724885,-26.367,-33.691,-47.363,-28.320
1789993447.728723,-45.898,-31.738,-36.621,-31.250
1789993447.732561,-50.781,-33.203,-44.434,-39.062
1789993447.736398,-31.738,-34.180,-48.340,-41.504
1789993447.740236,-35.156,-38.574,-45.410,-56.152
1789993447.744074,-55.664,-38.574,-50.293,-64.941
1789993447.747912,-51.270,-38.086,-52.246,-46.387
1789993447.751750,-40.527,-42.969,-54.688,-36.621
1789993447.755588,-41.504,-45.898,-45.898,-52.734
1789993447.759425,-62.500,-41.016,-43.945,-65.918
1789993447.764203,-69.824,-41.992,-49.316,-69.824
1789993447.768042,-47.852,-44.922,-46.387,-59.570
1789993447.771881,-30.762,-39.062,-41.016,-39.062
1789993447.775720,-46.875,-41.992,-38.574,-37.598
1789993447.779558,-55.664,-41.504,-38.086,-44.922
1789993447.783397,-33.203,-30.762,-36.133,-44.922
1789993447.787236,-17.090,-33.203,-41.504,-41.992
1789993447.791075,-34.668,-38.574,-44.434,-55.176
1789993447.794914,-50.781,-35.156,-40.039,-60.059
1789993447.798753,-44.922,-34.180,-34.668,-44.922
1789993447.802592,-20.508,-26.367,-37.598,-29.297
1789993447.806430,-24.414,-27.344,-43.457,-29.785
1789993447.811132,-56.641,-42.969,-41.504,-43.945
1789993447.814971,-59.570,-42.969,-36.621,-42.969
1789993447.818811,-34.180,-40.039,-40.039,-30.762
1789993447.822651,-18.066,-35.645,-50.781,-30.273
1789993447.826491,-41.016,-30.273,-51.758,-42.480
1789993447.830330,-47.363,-34.180,-44.922,-41.504
1789993447.834170,-25.391,-33.203,-50.781,-37.109
1789993447.838010,-20.508,-26.367,-57.129,-35.645
1789993447.841850,-43.457,-33.691,-55.176,-42.969
1789993447.845690,-54.199,-44.434,-55.664,-50.293
1789993447.849529,-37.109,-37.598,-50.293,-42.480
1789993447.853369,-18.555,-35.645,-49.316,-36.133
1789993447.857922,-28.320,-42.969,-50.293,-44.434
1789993447.861763,-55.176,-47.363,-45.898,-59.082
1789993447.865603,-43.945,-39.062,-48.340,-50.781
1789993447.869444,-18.555,-28.320,-50.293,-36.621
1789993447.873284,-30.273,-37.598,-43.945,-42.969
1789993447.877125,-45.410,-45.898,-33.691,-44.922
1789993447.880965,-44.434,-39.551,-36.133,-37.598
1789993447.884806,-34.180,-24.414,-39.551,-25.879
1789993447.888646,-26.855,-25.391,-35.645,-34.668
1789993447.892487,-48.340,-33.203,-34.668,-52.734
1789993447.896327,-56.641,-36.621,-41.504,-46.387
1789993447.900168,-35.156,-30.762,-40.527,-38.086
1789993447.904704,-18.555,-28.320,-31.738,-38.086
1789993447.908545,-39.551,-33.203,-37.109,-49.805
1789993447.912386,-61.035,-33.203,-42.480,-50.293
1789993447.916227,-51.270,-35.645,-32.227,-53.711
1789993447.920069,-21.973,-33.691,-21.484,-46.387
1789993447.923910,-23.926,-31.250,-24.902,-29.785
1789993447.927751,-50.781,-36.621,-26.367,-38.086
1789993447.931592,-43.945,-32.227,-21.484,-36.621
1789993447.935434,-22.461,-32.227,-27.832,-35.645
1789993447.939275,-18.066,-38.086,-39.062,-44.434
1789993447.943116,-39.551,-40.527,-37.109,-52.246
1789993447.946957,-50.781,-45.410,-36.621,-51.270
1789993447.951396,-24.414,-37.109,-31.738,-29.785
1789993447.955238,-6.836,-35.645,-23.926,-6.836
1789993447.959080,-36.133,-42.969,-25.879,-21.973
1789993447.962921,-54.199,-38.086,-36.133,-49.805
1789993447.966763,-31.738,-32.715,-44.922,-49.805
1789993447.970605,-15.625,-39.062,-52.246,-47.363
1789993447.974447,-41.504,-41.016,-59.082,-53.711
1789993447.978289,-60.059,-29.297,-56.641,-48.340
1789993447.982131,-52.246,-32.227,-54.199,-41.992
1789993447.985972,-29.785,-35.156,-52.246,-35.156
1789993447.989814,-27.344,-26.855,-49.805,-35.156
1789993447.993656,-62.012,-28.809,-53.223,-53.711
1789993447.998055,-72.266,-34.180,-59.082,-56.152
1789993448.001898,-47.363,-36.133,-59.570,-39.551
1789993448.005740,-43.457,-38.086,-58.594,-43.457
1789993448.009583,-60.547,-34.668,-57.617,-62.500
1789993448.013425,-64.941,-30.762,-52.246,-57.617
1789993448.017267,-47.363,-33.691,-49.316,-39.551
1789993448.021110,-35.645,-35.156,-55.664,-34.180
1789993448.024952,-55.664,-32.715,-54.688,-41.504
1789993448.028795,-64.941,-30.762,-47.363,-45.410
1789993448.032637,-44.922,-29.297,-45.898,-35.156
1789993448.036479,-27.832,-35.156,-48.340,-34.180
1789993448.040322,-41.504,-33.691,-55.176,-50.781
1789993448.045110,-54.688,-27.344,-50.781,-52.734
1789993448.048954,-49.316,-37.598,-42.969,-58.105
1789993448.052797,-29.297,-36.621,-46.387,-61.035
1789993448.056640,-31.250,-30.762,-44.434,-52.246
1789993448.060484,-52.246,-27.832,-42.480,-52.734
1789993448.064327,-56.641,-27.344,-37.109,-44.434
1789993448.068170,-37.598,-28.809,-36.621,-31.250
1789993448.072014,-33.203,-22.461,-43.945,-40.527
1789993448.075857,-61.035,-18.555,-43.457,-58.594
1789993448.079700,-73.730,-13.184,-36.133,-66.895
1789993448.083544,-63.965,-13.184,-31.250,-79.590
1789993448.087387,-72.754,-19.531,-36.621,-95.703
1789993448.092187,-112.305,-25.391,-41.504,-118.164
1789993448.096031,-135.254,-18.066,-40.039,-143.555
1789993448.099876,-136.719,-2.930,-35.156,-144.043
1789993448.103720,-137.207,5.371,-30.762,-150.879
1789993448.107564,-162.598,8.789,-26.855,-183.594
1789993448.111408,-207.031,8.789,-35.156,-203.613
1789993448.115253,-220.215,9.277,-45.410,-209.961
1789993448.119097,-207.520,14.648,-41.504,-203.613
1789993448.122941,-214.844,15.625,-41.016,-218.262
1789993448.126786,-255.859,12.695,-46.387,-255.859
1789993448.130630,-262.207,20.020,-57.617,-268.066
1789993448.134474,-238.281,15.625,-62.500,-241.211
1789993448.139130,-226.074,8.301,-52.734,-224.609
1789993448.142975,-236.816,3.906,-51.270,-226.562
1789993448.146820,-244.141,-5.371,-50.781,-213.379
1789993448.150665,-209.961,-11.230,-41.504,-190.918
1789993448.154510,-178.223,-19.043,-47.363,-181.641
1789993448.158355,-185.547,-21.973,-56.641,-180.176
1789993448.162200,-195.801,-22.461,-49.316,-168.945
1789993448.166045,-176.270,-26.367,-46.875,-152.832
1789993448.169890,-132.812,-32.227,-40.527,-117.676
1789993448.173735,-125.488,-37.109,-34.668,-106.934
1789993448.177580,-138.672,-38.086,-32.715,-108.398
1789993448.181425,-120.605,-39.551,-31.738,-95.215
1789993448.186012,-91.797,-39.551,-33.691,-81.543
1789993448.189857,-84.961,-46.875,-36.621,-75.195
1789993448.193703,-97.656,-56.152,-37.109,-58.594
1789993448.197549,-89.355,-49.316,-38.086,-53.711
1789993448.201395,-63.477,-48.340,-38.086,-52.734
1789993448.205240,-55.176,-56.641,-36.133,-32.715
1789993448.209086,-62.988,-56.152,-34.180,-43.945
1789993448.212932,-50.293,-60.059,-31.738,-43.945
1789993448.216778,-27.344,-62.012,-31.738,-22.949
1789993448.220623,-9.766,-57.129,-28.809,-13.184
1789993448.224469,-13.184,-50.293,-26.855,-2.930
1789993448.228315,-24.902,-53.711,-36.133,-3.906
1789993448.232859,-13.184,-60.059,-38.574,6.836
1789993448.236706,20.020,-50.293,-31.738,27.344
1789993448.240552,22.461,-45.410,-27.344,25.391
1789993448.244399,1.465,-45.410,-26.367,9.277
1789993448.248245,2.441,-45.410,-29.297,6.348
1789993448.252091,29.297,-47.363,-33.203,20.508
1789993448.255938,37.598,-50.293,-32.715,30.762
1789993448.259784,22.949,-47.852,-21.484,32.715
1789993448.263631,23.438,-43.945,-21.484,33.203
1789993448.267477,28.809,-51.758,-28.320,36.621
1789993448.271323,43.945,-59.570,-19.531,41.992
1789993448.275170,38.086,-49.805,-22.461,35.645
1789993448.279651,22.461,-43.945,-32.227,27.832
1789993448.283498,29.297,-53.223,-32.227,20.996
1789993448.287345,48.340,-57.617,-33.691,29.297
1789993448.291192,31.738,-55.664,-43.945,35.156
1789993448.295039,13.672,-54.199,-48.340,20.508
1789993448.298886,28.809,-55.176,-42.480,23.438
1789993448.302733,46.387,-52.734,-37.598,44.922
1789993448.306580,42.480,-53.711,-38.086,51.270
1789993448.310427,20.020,-52.734,-38.086,27.344
1789993448.314274,21.973,-50.781,-33.691,18.066
1789993448.318121,41.504,-49.805,-24.902,32.227
1789993448.321969,41.504,-50.781,-21.973,40.039
1789993448.326418,20.508,-51.758,-26.367,20.996
1789993448.330266,13.672,-45.410,-33.203,-0.488
1789993448.334114,28.320,-40.039,-36.621,9.277
1789993448.337961,43.457,-41.992,-39.062,30.762
1789993448.341809,27.832,-47.852,-38.574,21.973
1789993448.345656,8.301,-51.270,-40.527,10.742
1789993448.349504,20.508,-45.410,-39.062,26.367
1789993448.353352,35.645,-51.758,-33.203,27.832
1789993448.357199,20.020,-51.758,-33.203,11.230
1789993448.361047,4.883,-42.969,-33.203,0.488
1789993448.364894,15.625,-43.457,-34.180,15.625
1789993448.368742,33.691,-39.062,-29.785,28.809
1789993448.373078,30.273,-37.598,-31.738,11.719
1789993448.376926,1.953,-38.574,-39.551,10.742
1789993448.380774,-4.883,-36.621,-37.109,17.578
1789993448.384622,20.020,-40.039,-33.203,17.578
1789993448.388470,25.879,-43.457,-33.203,19.043
1789993448.392318,10.254,-44.922,-32.715,17.578
1789993448.396166,6.836,-41.504,-40.039,16.602
1789993448.400014,19.043,-34.668,-38.086,17.090
1789993448.403862,25.391,-34.180,-33.203,20.508
1789993448.407710,8.301,-33.691,-34.180,13.184
1789993448.411558,-8.789,-34.180,-34.180,-8.789
1789993448.415406,-5.859,-34.180,-36.621,-13.184
1789993448.420133,9.277,-34.668,-32.227,4.395
1789993448.423982,-3.906,-38.086,-32.715,-6.836
1789993448.427830,-24.414,-33.203,-43.457,-20.508
1789993448.431679,-22.461,-35.156,-46.875,-13.672
1789993448.435528,2.441,-39.551,-36.133,-1.953
1789993448.439377,-6.348,-41.992,-33.691,-8.301
1789993448.443226,-35.645,-37.109,-36.621,-36.621
1789993448.447075,-28.320,-29.785,-33.691,-33.691
1789993448.450923,-6.836,-36.133,-34.668,-12.695
1789993448.454772,1.953,-44.922,-39.062,-4.395
1789993448.458621,-20.508,-56.152,-47.852,-22.949
1789993448.462470,-22.461,-49.316,-42.969,-29.785
1789993448.467141,3.906,-38.574,-36.621,-11.719
1789993448.470991,19.531,-38.574,-38.574,-7.324
1789993448.474840,-3.418,-39.062,-41.504,-12.695
1789993448.478690,-20.020,-44.922,-41.016,-8.789
1789993448.482539,-4.395,-37.109,-43.945,-12.207
1789993448.486389,13.184,-32.227,-42.480,-13.184
1789993448.490238,4.883,-36.621,-32.715,-5.859
1789993448.494088,-15.625,-40.527,-38.574,-13.672
1789993448.497937,-14.648,-40.039,-37.598,-15.137
1789993448.501787,4.395,-42.969,-32.227,-4.883
1789993448.505637,2.930,-41.504,-31.738,-7.324
1789993448.509486,-22.461,-35.156,-37.598,-13.672
1789993448.514123,-26.855,-38.574,-40.527,-14.648
1789993448.517973,-8.789,-40.039,-27.832,-7.324
1789993448.521824,2.441,-40.527,-33.691,-6.836
1789993448.525674,-20.020,-40.527,-36.133,-23.438
1789993448.529524,-31.738,-35.156,-33.691,-27.344
1789993448.533374,-21.484,-33.691,-34.180,-24.414
1789993448.537225,-4.883,-41.016,-32.227,-16.602
1789993448.541075,-13.672,-43.457,-36.621,-15.625
1789993448.544925,-36.621,-36.621,-39.551,-26.367
1789993448.548775,-21.484,-33.203,-38.574,-30.273
1789993448.552626,9.766,-35.156,-39.062,-19.043
1789993448.556476,6.348,-41.992,-47.363,-19.531
1789993448.561033,-18.066,-44.434,-48.828,-27.832
1789993448.564884,-20.020,-42.969,-44.434,-22.461
1789993448.568735,3.906,-42.480,-40.527,-14.160
1789993448.572586,6.348,-44.434,-41.504,-7.324
1789993448.576437,-20.508,-42.969,-44.922,-32.227
1789993448.580288,-27.832,-41.016,-36.621,-41.504
1789993448.584139,-9.766,-40.039,-34.180,-26.855
1789993448.587989,2.930,-42.480,-40.527,-20.020
1789993448.591840,-14.160,-39.551,-34.180,-22.949
1789993448.595691,-26.367,-31.250,-20.996,-31.250
1789993448.599542,-16.113,-29.785,-17.578,-24.902
1789993448.603393,0.488,-29.297,-23.438,-19.531
1789993448.607895,0.000,-37.598,0.000,-28.809
1789993448.611747,0.000,-36.133,0.000,-33.691
1789993448.615598,0.000,-31.738,0.000,-36.133
1789993448.619450,0.000,-35.645,0.000,-28.809
1789993448.623301,0.000,-36.621,0.000,-9.766
1789993448.627153,0.000,-40.039,0.000,-21.484
1789993448.631004,0.000,-50.293,0.000,-56.641
1789993448.634856,0.000,-54.688,0.000,-43.945
1789993448.638707,0.000,-53.223,0.000,-27.344
1789993448.642558,0.000,-51.270,0.000,-45.898
1789993448.646410,0.000,-53.711,0.000,-44.922
1789993448.650261,0.000,-45.410,0.000,-23.926
1789993448.654667,-17.090,-41.016,-14.160,-27.832
1789993448.658519,-40.527,-52.246,-10.742,-43.457
1789993448.662371,-52.734,-53.711,-9.766,-42.969
1789993448.666223,-31.250,-51.270,-16.113,-43.945
1789993448.670075,-8.301,-51.758,-19.043,-34.668
1789993448.673927,-12.695,-47.363,-14.160,-22.949
1789993448.677779,-28.809,-44.434,-8.789,-14.648
1789993448.681631,-21.973,-44.922,-7.324,-17.578
1789993448.685483,1.953,-40.039,-13.672,-14.648
1789993448.689335,7.812,-33.691,-19.531,-3.906
1789993448.693187,-20.508,-42.969,-20.020,-20.996
1789993448.697038,-37.109,-50.781,-23.438,-39.062
1789993448.701392,-21.973,-51.758,-31.250,-34.668
1789993448.705244,-4.883,-43.457,-26.367,-29.785
1789993448.709097,-20.996,-36.621,-16.602,-31.738
1789993448.712949,-31.250,-35.645,-22.461,-38.574
1789993448.716801,-9.766,-28.320,-24.414,-37.598
1789993448.720654,7.324,-39.551,-24.414,-31.250
1789993448.724506,-12.695,-50.293,-28.320,-28.320
1789993448.728359,-29.785,-43.945,-26.367,-29.785
1789993448.732211,-10.742,-42.480,-27.344,-37.109
1789993448.736063,8.789,-48.828,-23.926,-28.320
1789993448.739915,0.977,-46.387,-18.066,-19.531
1789993448.743768,-20.508,-33.691,-18.555,-25.879
1789993448.748083,-17.578,-30.762,-26.367,-28.809
1789993448.751936,3.418,-36.133,-27.832,-17.090
1789993448.755788,-5.859,-36.621,-20.508,-22.949
1789993448.759641,-36.621,-35.645,-23.926,-42.969
1789993448.763494,-45.410,-45.898,-27.344,-37.598
1789993448.767347,-22.461,-48.340,-30.273,-22.949
1789993448.771199,-5.371,-40.527,-39.551,-26.855
1789993448.775052,-19.531,-42.969,-31.250,-48.340
1789993448.778905,-26.855,-29.785,-23.926,-43.457
1789993448.782758,-12.695,-25.879,-29.297,-28.809
1789993448.786610,-3.418,-43.945,-28.809,-24.414
1789993448.790463,-26.367,-48.828,-38.086,-41.992
1789993448.795127,-43.457,-44.922,-41.016,-55.664
1789993448.798980,-30.273,-47.852,-35.645,-46.387
1789993448.802834,-10.742,-49.805,-38.086,-37.598
1789993448.806687,-17.090,-39.551,-41.016,-40.527
1789993448.810540,-41.992,-32.715,-36.133,-50.781
1789993448.814394,-41.016,-34.668,-28.320,-41.504
1789993448.818247,-17.090,-41.504,-31.250,-32.715
1789993448.822100,-15.625,-41.992,-28.809,-36.621
1789993448.825954,-38.574,-41.016,-20.996,-40.039
1789993448.829807,-37.109,-33.691,-24.414,-25.879
1789993448.833661,-16.602,-32.227,-25.879,-21.484
1789993448.837514,-11.719,-37.109,-31.250,-29.297
1789993448.842108,-26.367,-33.691,-33.203,-36.621
1789993448.845962,-34.180,-26.367,-24.414,-25.391
1789993448.849816,-19.043,-21.484,-25.391,-22.949
1789993448.853670,-2.930,-35.645,-34.180,-27.832
1789993448.857524,-11.719,-38.574,-34.180,-29.785
1789993448.861378,-29.785,-30.762,-33.691,-37.598
1789993448.865232,-32.715,-34.180,-33.691,-30.762
1789993448.869086,-9.277,-34.180,-28.809,-16.602
1789993448.872940,-10.742,-27.832,-29.785,-20.508
1789993448.876794,-39.551,-24.414,-35.645,-35.156
1789993448.880648,-45.410,-38.086,-41.504,-51.270
1789993448.884502,-23.438,-45.898,-42.969,-41.992
1789993448.889039,-19.043,-42.969,-43.457,-29.297
1789993448.892894,-51.758,-46.875,-42.480,-47.852
1789993448.896748,-56.641,-47.363,-35.645,-60.547
1789993448.900603,-33.203,-34.180,-26.367,-51.270
1789993448.904457,-26.855,-35.156,-28.809,-36.133
1789993448.908312,-40.527,-41.016,-35.645,-31.738
1789993448.912166,-43.457,-36.621,-36.621,-40.039
1789993448.916021,-32.227,-32.715,-41.504,-45.410
1789993448.919876,-23.438,-37.109,-45.410,-41.992
1789993448.923730,-39.551,-50.781,-41.992,-44.922
1789993448.927585,-60.059,-48.828,-37.598,-50.293
1789993448.931439,-52.246,-47.852,-41.992,-46.387
1789993448.936002,-26.367,-44.922,-40.039,-26.367
1789993448.939857,-22.461,-37.109,-36.621,-30.273
1789993448.943712,-43.457,-40.527,-38.574,-50.781
1789993448.947567,-50.781,-37.109,-34.180,-43.945
1789993448.951422,-25.879,-37.598,-35.156,-36.621
1789993448.955277,-19.043,-38.086,-35.645,-42.969
1789993448.959133,-51.758,-37.109,-36.621,-52.246
1789993448.962988,-53.711,-34.668,-39.062,-52.734
1789993448.966843,-37.109,-33.691,-39.551,-42.969
1789993448.970698,-29.785,-34.668,-39.062,-46.387
1789993448.974553,-44.434,-31.250,-36.621,-59.082
1789993448.978408,-54.199,-28.320,-32.227,-62.988
1789993448.982903,-30.273,-24.902,-27.832,-44.922
1789993448.986759,-12.695,-24.902,-27.832,-24.902
1789993448.990614,-32.227,-36.133,-37.598,-39.062
1789993448.994470,-55.176,-37.109,-40.527,-48.340
1789993448.998326,-47.363,-34.180,-34.668,-42.969
1789993449.002181,-19.043,-36.621,-38.574,-42.969
1789993449.006037,-16.113,-30.762,-39.062,-42.969
1789993449.009893,-49.316,-31.738,-41.504,-62.012
1789993449.013748,-50.293,-33.691,-38.086,-58.594
1789993449.017604,-27.344,-36.133,-35.156,-31.738
1789993449.021460,-28.809,-38.574,-36.133,-33.691
1789993449.025315,-43.945,-30.762,-38.574,-43.457
1789993449.029747,0.000,-30.762,-35.645,-36.133
1789993449.033602,0.000,-37.598,-35.156,-42.480
1789993449.037459,0.000,-34.180,-36.621,-32.715
1789993449.041315,0.000,-34.668,-33.691,-22.949
1789993449.045171,0.000,-34.180,-35.156,-40.039
1789993449.049027,0.000,-22.949,-31.250,-48.340
1789993449.052883,0.000,-21.484,-38.574,-42.969
1789993449.056739,0.000,-36.621,-44.922,-38.574
1789993449.060595,0.000,-37.109,-41.016,-58.105
1789993449.064451,0.000,-27.344,-46.387,-64.941
1789993449.068308,0.000,-33.691,-50.293,-45.898
1789993449.072164,0.000,-42.480,-45.410,-48.828
1789993449.076543,-48.340,-34.180,-31.738,-55.664
1789993449.080400,-46.387,-30.273,-30.273,-51.758
1789993449.084256,-30.762,-37.598,-40.039,-44.922
1789993449.088113,-19.043,-32.715,-41.992,-47.852
1789993449.091969,-29.297,-25.391,-40.527,-59.570
1789993449.095826,-41.992,-23.926,-37.598,-46.387
1789993449.099682,-28.809,-32.227,-37.109,-32.715
1789993449.103539,-9.277,-35.156,-36.133,-23.926
1789993449.107395,-22.461,-30.762,-31.738,-32.715
1789993449.111252,-41.992,-35.645,-34.668,-47.363
1789993449.115108,-40.527,-40.039,-46.387,-53.711
1789993449.118965,-20.508,-32.715,-51.270,-41.016
1789993449.123259,-16.113,-25.391,-41.016,-29.785
1789993449.127116,-41.992,-23.438,-34.180,-36.621
1789993449.130973,-40.527,-24.414,-37.598,-25.391
1789993449.134830,-19.531,-31.250,-42.969,-16.113
1789993449.138686,-14.648,-38.086,-40.039,-19.531
1789993449.142543,-33.691,-35.156,-38.086,-28.809
1789993449.146400,-39.062,-33.203,-46.387,-40.039
1789993449.150257,-15.625,-41.992,-44.434,-34.668
1789993449.154114,-0.977,-34.180,-33.691,-20.996
1789993449.157971,-19.043,-18.066,-36.133,-30.762
1789993449.161828,-27.344,-20.020,-42.480,-30.762
1789993449.165684,-15.137,-25.879,-36.621,-23.926
1789993449.170285,4.883,-25.879,-35.156,-24.414
1789993449.174143,-4.395,-19.043,-38.574,-25.879
1789993449.178000,-26.367,-22.461,-36.133,-34.668
1789993449.181857,-27.832,-37.598,-33.203,-44.922
1789993449.185715,-15.625,-31.250,-25.879,-37.598
1789993449.189572,-18.555,-17.578,-21.973,-32.227
1789993449.193430,-52.246,-26.367,-32.227,-41.992
1789993449.197287,-56.152,-33.691,-32.715,-39.062
1789993449.201145,-32.227,-30.762,-27.344,-31.250
1789993449.205002,-18.066,-30.762,-28.809,-25.391
1789993449.208860,-23.438,-33.203,-28.320,-29.297
1789993449.212717,-48.828,-31.250,-14.648,-54.199
1789993449.217293,-48.828,-31.738,-14.648,-60.059
1789993449.221151,-25.879,-38.086,-17.578,-45.898
1789993449.225009,-43.945,-43.457,-13.672,-57.617
1789993449.228867,-62.988,-51.270,-18.066,-64.453
1789993449.232725,-49.805,-56.152,-15.625,-54.688
1789993449.236583,-25.391,-49.316,-13.672,-42.480
1789993449.240441,-31.738,-45.410,-15.137,-45.898
1789993449.244299,-47.852,-46.875,-13.184,-55.664
1789993449.248157,-48.828,-53.711,-19.043,-39.551
1789993449.252015,-36.621,-49.316,-21.973,-28.809
1789993449.255872,-22.949,-42.480,-13.184,-26.855
1789993449.259731,-40.527,-42.480,-17.090,-30.762
1789993449.264301,-44.434,-38.574,-19.043,-35.156
1789993449.268160,-25.391,-43.457,-18.555,-26.855
1789993449.272018,-18.066,-43.457,-22.461,-15.625
1789993449.275877,-37.109,-39.551,-21.973,-15.625
1789993449.279735,-50.781,-41.016,-27.344,-20.508
1789993449.283594,-29.785,-41.992,-30.762,-29.297
1789993449.287452,-12.695,-41.504,-23.438,-23.438
1789993449.291311,-31.738,-42.480,-22.461,-19.531
1789993449.295169,-41.016,-36.621,-22.461,-29.785
1789993449.299028,-31.250,-31.738,-21.484,-30.762
1789993449.302886,-11.230,-39.062,-27.832,-33.691
1789993449.306745,-15.625,-41.504,-31.250,-44.434
1789993449.311198,-50.293,-40.039,-32.227,-53.223
1789993449.315057,-47.363,-31.250,-28.320,-32.227
1789993449.318916,-21.484,-26.855,-21.973,-24.414
1789993449.322775,-21.484,-35.156,-27.832,-41.504
1789993449.326634,-50.781,-37.598,-32.227,-48.828
1789993449.330492,-55.664,-33.691,-34.668,-32.227
1789993449.334352,-30.273,-36.133,-28.320,-25.391
1789993449.338211,-21.484,-39.551,-27.832,-35.645
1789993449.342070,-37.109,-36.621,-32.715,-46.875
1789993449.345928,-43.457,-36.621,-31.738,-56.641
1789993449.349787,-25.879,-33.691,-37.109,-36.621
1789993449.353647,-13.184,-38.086,-37.109,-24.414
1789993449.358080,-25.879,-38.086,-37.109,-39.551
1789993449.361939,-38.086,-32.227,-39.551,-46.875
1789993449.365798,-29.785,-28.809,-41.504,-42.480
1789993449.369658,-12.207,-36.621,-43.457,-35.156
1789993449.373518,-20.508,-39.062,-42.969,-39.062
1789993449.377377,-47.852,-34.180,-43.457,-50.293
1789993449.381236,-31.250,-28.320,-36.133,-44.434
1789993449.385096,3.418,-22.461,-26.855,-28.320
1789993449.388955,-10.742,-26.367,-26.855,-23.438
1789993449.392814,-35.645,-36.621,-33.691,-42.480
1789993449.396674,-38.086,-40.527,-34.180,-36.621
1789993449.400533,-20.508,-30.273,-35.156,-19.043
1789993449.404877,-14.648,-27.344,-36.133,-30.762
1789993449.408736,-33.691,-30.273,-35.156,-50.781
1789993449.412596,-41.016,-29.297,-33.203,-40.039
1789993449.416456,-35.156,-33.203,-34.180,-41.992
1789993449.420316,-18.555,-41.016,-35.156,-42.480
1789993449.424176,-23.926,-46.875,-34.668,-48.340
1789993449.428035,-52.246,-51.758,-36.133,-59.082
1789993449.431895,-42.480,-49.316,-37.598,-46.387
1789993449.435755,-15.625,-42.969,-42.480,-33.203
1789993449.439615,-28.320,-38.574,-47.852,-25.879
1789993449.443474,-48.828,-36.133,-41.016,-46.875
1789993449.447334,-45.410,-34.180,-35.156,-44.434
1789993449.451696,-28.809,-36.133,-36.133,-33.203
1789993449.455556,-21.484,-38.086,-36.621,-46.387
1789993449.459416,-41.016,-35.645,-33.203,-49.316
1789993449.463276,-52.734,-34.668,-28.809,-47.852
1789993449.467136,-32.715,-37.598,-26.855,-40.039
1789993449.470997,-17.578,-36.621,-28.809,-23.926
1789993449.474857,-33.691,-34.180,-33.691,-23.926
1789993449.478717,-45.410,-27.832,-30.273,-35.156
1789993449.482577,-28.809,-22.461,-25.879,-38.086
1789993449.486437,-6.836,-32.227,-34.180,-37.109
1789993449.490297,-23.438,-39.062,-38.086,-39.551
1789993449.494157,-50.781,-34.668,-35.156,-44.434
1789993449.498454,-46.387,-31.738,-43.457,-49.316
1789993449.502315,-26.367,-33.691,-45.410,-42.969
1789993449.506175,-25.391,-29.297,-40.039,-37.598
1789993449.510036,-52.734,-27.344,-40.039,-48.340
1789993449.513896,-58.105,-40.527,-42.480,-52.734
1789993449.517757,-29.297,-40.527,-44.922,-33.203
1789993449.521617,-23.926,-37.109,-42.480,-28.809
1789993449.525477,-54.199,-49.316,-46.387,-44.922
1789993449.529338,-62.500,-48.340,-50.781,-46.387
1789993449.533198,-47.363,-36.133,-49.805,-44.922
1789993449.537059,-36.621,-31.250,-49.805,-40.039
1789993449.540919,-54.199,-33.203,-51.270,-49.316
1789993449.545495,-65.430,-31.250,-50.293,-55.664
1789993449.549356,-44.922,-29.785,-50.781,-54.199
1789993449.553217,-11.719,-33.203,-48.340,-40.527
1789993449.557078,-14.648,-27.832,-39.062,-28.320
1789993449.560939,-55.664,-26.367,-32.715,-46.387
1789993449.564800,-51.270,-38.574,-29.297,-41.504
1789993449.568661,-26.367,-43.945,-29.297,-20.996
1789993449.572522,-26.855,-36.621,-31.250,-28.809
1789993449.576383,-44.922,-34.668,-27.832,-36.621
1789993449.580244,-52.734,-34.668,-24.414,-33.203
1789993449.584105,-31.250,-37.598,-22.461,-23.438
1789993449.587966,-15.625,-39.062,-23.438,-22.461
1789993449.592485,-39.551,-36.621,-28.809,-39.551
1789993449.596346,-57.617,-39.551,-25.879,-34.668
1789993449.600208,-39.062,-38.574,-24.414,-27.832
1789993449.604069,-20.020,-30.762,-27.832,-24.902
1789993449.607930,-37.109,-41.016,-33.691,-27.832
1789993449.611792,-54.688,-44.922,-37.109,-35.156
1789993449.615653,-38.086,-32.715,-37.109,-37.598
1789993449.619515,-11.230,-31.250,-40.039,-29.785
1789993449.623376,-20.020,-36.621,-41.504,-28.320
1789993449.627238,-45.410,-35.645,-35.645,-39.551
1789993449.631099,-47.852,-35.645,-34.180,-41.016
1789993449.634960,-32.227,-33.691,-45.898,-46.387
1789993449.639473,-26.855,-31.738,-49.316,-51.758
1789993449.643335,-41.992,-32.227,-40.527,-46.875
1789993449.647197,-39.062,-31.250,-33.691,-28.809
1789993449.651058,-20.508,-33.203,-25.879,-16.113
1789993449.654920,-14.160,-33.203,-23.926,-26.367
1789993449.658782,-29.785,-35.645,-23.438,-36.621
1789993449.662644,-41.992,-37.109,-23.926,-38.086
1789993449.666506,-33.203,-30.273,-29.785,-37.598
1789993449.670368,-10.254,-30.273,-36.621,-23.926
1789993449.674230,-23.438,-38.574,-38.086,-33.203
1789993449.678092,-42.969,-39.062,-34.668,-40.039
1789993449.681953,-41.504,-41.504,-41.504,-30.762
1789993449.686398,-26.367,-43.457,-41.016,-24.414
1789993449.690260,-21.973,-40.039,-36.133,-33.691
1789993449.694122,-52.734,-38.574,-39.062,-57.129
1789993449.697984,-58.105,-34.180,-30.762,-59.570
1789993449.701847,-31.738,-30.273,-25.879,-43.457
1789993449.705709,-31.738,-37.109,-34.668,-37.598
1789993449.709571,-52.246,-42.480,-33.691,-55.664
1789993449.713434,-47.852,-32.227,-28.320,-52.246
1789993449.717296,-25.879,-26.367,-27.832,-33.203
1789993449.721158,-14.648,-25.391,-31.738,-35.156
1789993449.725020,-37.598,-31.250,-42.480,-44.922
1789993449.728883,-55.176,-38.086,-43.457,-41.504
1789993449.733271,-41.016,-37.109,-42.969,-34.180
1789993449.737134,-19.531,-38.574,-40.039,-37.109
1789993449.740996,-29.297,-37.109,-34.668,-36.133
1789993449.744859,-50.293,-29.297,-32.227,-39.551
1789993449.748722,-36.621,-25.391,-30.762,-35.645
1789993449.752584,-16.602,-29.785,-36.133,-27.832
1789993449.756447,-28.809,-40.527,-41.504,-31.738
1789993449.760310,-46.387,-43.945,-43.945,-40.039
1789993449.764172,-41.504,-32.227,-39.062,-37.109
1789993449.768035,-27.832,-29.297,-36.133,-29.297
1789993449.771898,-23.926,-44.922,-43.945,-33.691
1789993449.775760,-34.668,-42.480,-42.969,-30.273
1789993449.780124,-25.879,-29.785,-29.785,-10.254
1789993449.783988,-19.531,-34.180,-25.879,-5.371
1789993449.787850,-38.086,-38.086,-29.297,-35.645
1789993449.791713,-65.430,-41.016,-36.621,-73.242
1789993449.795577,-79.102,-43.457,-40.527,-75.684
1789993449.799439,-84.473,-44.434,-37.109,-79.590
1789993449.803303,-83.008,-45.410,-37.598,-79.102
1789993449.807165,-97.168,-48.828,-39.551,-83.984
1789993449.811028,-111.328,-48.340,-35.645,-99.121
1789993449.814892,-111.328,-35.156,-35.156,-113.281
1789993449.818754,-90.332,-34.668,-38.574,-108.398
1789993449.822618,-82.520,-45.898,-37.598,-92.285
1789993449.826941,-108.398,-47.852,-33.203,-100.098
1789993449.830804,-98.633,-36.621,-32.227,-84.473
1789993449.834668,-59.082,-29.785,-31.738,-58.105
1789993449.838531,-41.992,-31.250,-31.738,-48.828
1789993449.842394,-53.711,-27.832,-30.762,-54.688
1789993449.846258,-56.152,-30.273,-27.832,-55.176
1789993449.850121,-43.457,-37.598,-31.250,-42.480
1789993449.853984,-33.203,-39.551,-34.668,-41.016
1789993449.857848,-43.457,-32.227,-32.715,-53.711
1789993449.861711,-59.082,-24.414,-37.109,-56.152
1789993449.865574,-47.852,-31.738,-38.574,-54.688
1789993449.869438,-26.367,-35.645,-32.227,-46.875
1789993449.873693,-29.297,-31.250,-31.738,-47.363
1789993449.877557,-46.875,-35.645,-41.016,-48.828
1789993449.881420,-52.734,-45.898,-41.504,-54.199
1789993449.885284,-32.715,-53.711,-32.227,-43.457
1789993449.889148,-19.531,-42.969,-32.715,-24.902
1789993449.893011,-44.434,-34.180,-33.691,-35.645
1789993449.896875,-46.875,-33.203,-28.809,-34.180
1789993449.900738,-25.391,-34.668,-32.715,-29.785
1789993449.904602,-21.973,-44.434,-39.062,-34.668
1789993449.908465,-37.109,-47.852,-41.504,-40.527
1789993449.912329,-42.480,-41.016,-42.480,-37.598
1789993449.916193,-23.926,-35.156,-36.621,-24.902
1789993449.920719,-1.953,-40.527,-30.273,-10.742
1789993449.924582,-17.090,-41.504,-40.039,-19.043
1789993449.928447,-33.691,-31.738,-50.781,-32.227
1789993449.932311,-24.414,-17.090,-42.969,-29.785
1789993449.936175,-3.418,-21.484,-32.715,-16.113
1789993449.940039,-2.441,-32.715,-39.551,-21.484
1789993449.943903,-22.461,-31.250,-41.016,-29.297
1789993449.947767,-20.020,-34.180,-31.250,-17.090
1789993449.951631,2.930,-36.621,-36.621,-4.883
1789993449.955495,5.859,-29.785,-44.434,-1.953
1789993449.959359,-19.043,-28.809,-42.969,-28.320
1789993449.963223,-26.855,-26.855,-41.504,-49.316
1789993449.967705,-18.066,-30.762,-51.758,-42.480
1789993449.971570,-11.719,-39.062,-48.828,-36.621
1789993449.975434,-27.344,-41.504,-37.109,-45.410
1789993449.979299,-41.016,-39.551,-36.621,-49.805
1789993449.983163,-28.809,-37.598,-33.203,-32.715
1789993449.987028,-5.859,-35.156,-36.621,-14.648
1789993449.990892,-12.695,-32.227,-40.039,-15.137
1789993449.994756,-37.598,-35.645,-34.668,-28.320
1789993449.998621,-32.715,-38.086,-34.180,-26.855
1789993450.002485,-14.160,-32.227,-37.598,-13.184
1789993450.006350,-23.926,-28.809,-35.645,-20.020
1789993450.010214,-44.922,-39.551,-31.738,-34.180
1789993450.014659,0.000,-40.527,-36.621,-35.645
1789993450.018524,0.000,-41.504,-36.621,-28.320
1789993450.022389,0.000,-47.363,-34.180,-32.227
1789993450.026254,0.000,-40.527,-31.738,-47.363
1789993450.030118,0.000,-37.598,-37.109,-38.086
1789993450.033983,0.000,-34.180,-41.992,-33.691
1789993450.037848,0.000,-32.227,-36.621,-33.691
1789993450.041713,0.000,-39.062,-43.945,-33.203
1789993450.045578,0.000,-40.527,-47.852,-61.523
1789993450.049443,0.000,-36.133,-48.828,-77.148
1789993450.053308,0.000,-32.715,-49.316,-60.547
1789993450.057172,0.000,-26.855,-52.246,-62.988
1789993450.061555,-47.363,-20.020,-62.988,-75.684
1789993450.065420,-41.504,-14.160,-72.754,-63.477
1789993450.069285,-18.555,-15.625,-78.613,-43.945
1789993450.073150,-9.766,-9.766,-67.383,-35.156
1789993450.077016,-29.785,-2.441,-57.129,-38.574
1789993450.080881,-36.621,-19.531,-63.965,-49.805
1789993450.084746,-17.090,-29.785,-66.406,-47.852
1789993450.088611,-3.418,-25.391,-59.570,-23.926
1789993450.092476,-26.855,-21.484,-54.199,-18.066
1789993450.096342,-44.434,-21.484,-60.059,-58.105
1789993450.100207,-14.160,-22.949,-52.246,-62.988
1789993450.104072,-0.488,-19.531,-48.828,-40.039
1789993450.108774,-31.738,-20.996,-56.641,-55.664
1789993450.112640,-40.039,-29.297,-46.875,-58.594
1789993450.116506,-26.855,-28.809,-40.527,-46.387
1789993450.120371,0.488,-24.414,-38.086,-43.945
1789993450.124237,-9.277,-23.438,-35.156,-44.922
1789993450.128103,-41.504,-19.531,-42.480,-48.340
1789993450.131968,-33.691,-18.066,-40.527,-43.945
1789993450.135834,-7.324,-23.926,-34.668,-28.320
1789993450.139700,-4.395,-30.762,-34.668,-30.273
1789993450.143566,-24.414,-28.809,-37.598,-42.480
1789993450.147431,-31.738,-33.203,-45.410,-45.410
1789993450.151297,-20.508,-41.016,-48.828,-44.434
1789993450.155590,-9.766,-33.203,-40.527,-30.273
1789993450.159456,-23.926,-26.367,-31.250,-19.043
1789993450.163322,-32.715,-31.738,-35.645,-25.879
1789993450.167188,-20.508,-31.250,-39.551,-40.039
1789993450.171054,-8.789,-26.855,-34.668,-34.668
1789993450.174920,-25.391,-32.715,-38.086,-36.621
1789993450.178786,-44.434,-32.227,-42.480,-35.645
1789993450.182652,-34.180,-30.762,-36.133,-32.715
1789993450.186518,-14.160,-30.273,-34.668,-28.320
1789993450.190384,-14.648,-29.785,-41.016,-23.438
1789993450.194250,-41.016,-32.715,-40.039,-33.691
1789993450.198116,-59.082,-35.156,-42.480,-33.203
1789993450.202358,-32.715,-23.926,-38.086,-12.695
1789993450.206225,-26.367,-24.414,-34.668,-8.789
1789993450.210091,-55.664,-34.180,-41.504,-34.668
1789993450.213957,-52.734,-30.762,-41.992,-45.898
1789993450.217824,-24.414,-27.832,-39.062,-37.109
1789993450.221690,-14.160,-34.668,-49.316,-50.781
1789993450.225556,-37.598,-41.504,-61.523,-56.152
1789993450.229422,-50.781,-38.574,-56.152,-48.828
1789993450.233288,-35.156,-35.156,-41.504,-49.805
1789993450.237154,-9.766,-31.250,-38.574,-40.039
1789993450.241021,-28.809,-26.855,-47.363,-48.828
1789993450.244887,-49.805,-32.227,-42.969,-60.059
1789993450.249089,0.000,-33.691,-37.109,-52.734
1789993450.252956,0.000,-27.344,-42.969,-35.156
1789993450.256822,0.000,-31.738,-43.945,-21.973
1789993450.260689,0.000,-39.551,-51.758,-36.133
1789993450.264555,0.000,-34.180,-51.758,-45.410
1789993450.268422,0.000,-33.203,-41.016,-40.039
1789993450.272288,0.000,-37.598,-41.016,-40.039
1789993450.276155,0.000,-36.621,-39.551,-47.852
1789993450.280021,0.000,-40.527,-38.086,-53.223
1789993450.283887,0.000,-38.086,-36.133,-33.203
1789993450.287754,0.000,-35.645,-24.902,-17.090
1789993450.291620,0.000,-41.504,-30.762,-41.016
1789993450.296113,-53.711,-42.480,-45.410,-57.129
1789993450.299980,-41.016,-25.391,-36.621,-41.504
1789993450.303847,-14.648,-22.949,-30.762,-24.414
1789993450.307714,-26.855,-39.551,-38.086,-30.273
1789993450.311580,-41.992,-28.809,-36.133,-30.762
1789993450.315447,-38.086,-21.484,-33.691,-26.855
1789993450.319314,-34.668,-41.504,-33.691,-28.320
1789993450.323181,-31.738,-42.969,-34.668,-39.062
1789993450.327048,-44.922,-35.156,-34.668,-51.270
1789993450.330915,-44.922,-31.250,-32.227,-38.574
1789993450.334782,-24.414,-32.715,-28.809,-36.621
1789993450.338648,-21.973,-34.180,-22.949,-40.039
1789993450.343112,0.000,-33.203,-25.879,-41.504
1789993450.346979,0.000,-31.250,-23.926,-28.809
1789993450.350846,0.000,-33.203,-23.926,-20.508
1789993450.354713,0.000,-42.969,-26.367,-31.250
1789993450.358581,0.000,-36.133,-30.273,-41.504
1789993450.362448,0.000,-23.926,-35.645,-43.457
1789993450.366315,0.000,-25.391,-28.320,-37.598
1789993450.370182,0.000,-34.668,-20.996,-26.855
1789993450.374049,0.000,-34.180,-19.531,-15.625
1789993450.377917,0.000,-28.320,-26.367,-27.344
1789993450.381784,0.000,-22.461,-29.785,-46.875
1789993450.385651,0.000,-20.020,-28.320,-40.039
1789993450.390052,-13.184,-20.996,-37.598,-31.738
1789993450.393919,-34.180,-16.113,-44.434,-37.598
1789993450.397787,-28.320,-9.277,-36.621,-36.621
1789993450.401654,-17.578,-20.020,-41.504,-37.109
1789993450.405522,-10.254,-33.691,-41.992,-30.762
1789993450.409389,-30.273,-27.344,-34.668,-28.320
1789993450.413257,-51.270,-24.902,-39.062,-38.086
1789993450.417124,-34.668,-25.879,-39.551,-29.297
1789993450.420992,-8.789,-14.648,-32.227,-0.977
1789993450.424860,-18.066,-4.883,-27.344,-1.953
1789993450.428727,-38.086,-23.438,-29.785,-28.320
1789993450.432595,-35.156,-33.203,-28.809,-30.762
1789993450.436957,0.000,-26.855,-34.668,-28.320
1789993450.440825,0.000,-37.598,-37.109,-32.715
1789993450.444693,0.000,-39.062,-33.203,-39.551
1789993450.448561,0.000,-34.180,-37.598,-38.086
1789993450.452429,0.000,-37.109,-31.738,-23.438
1789993450.456297,0.000,-28.320,-28.320,-28.320
1789993450.460165,0.000,-16.113,-23.926,-49.316
1789993450.464032,0.000,-27.832,-28.809,-48.340
1789993450.467900,0.000,-33.203,-30.762,-28.320
1789993450.471768,0.000,-28.320,-26.367,-22.949
1789993450.475636,0.000,-28.809,-36.621,-38.574
1789993450.479504,0.000,-19.531,-30.273,-39.551
1789993450.483835,-36.133,-11.719,0.000,-28.320
1789993450.487703,-21.484,-22.461,0.000,-28.320
1789993450.491572,-41.504,-41.016,0.000,-46.387
1789993450.495440,-58.105,-44.434,0.000,-59.082
1789993450.499308,-44.922,-38.086,0.000,-44.434
1789993450.503176,-25.391,-41.016,0.000,-32.715
1789993450.507044,-26.855,-40.527,0.000,-37.598
1789993450.510912,-54.199,-32.715,0.000,-41.016
1789993450.514780,-53.223,-35.645,0.000,-33.203
1789993450.518649,-32.227,-35.645,0.000,-30.762
1789993450.522517,-33.203,-34.668,0.000,-31.738
1789993450.526385,-48.828,-41.016,0.000,-38.574
1789993450.530699,-57.617,-42.480,-36.621,-46.387
1789993450.534568,-35.156,-37.109,-41.016,-39.062
1789993450.538436,-14.648,-45.410,-46.875,-35.156
1789993450.542305,-31.738,-50.781,-42.969,-49.805
1789993450.546173,-45.410,-36.621,-40.039,-51.270
1789993450.550041,-41.992,-30.273,-37.598,-34.180
1789993450.553910,-18.555,-30.762,-34.180,-21.484
1789993450.557778,-29.785,-29.297,-38.574,-31.738
1789993450.561647,-62.012,-36.133,-42.969,-45.410
1789993450.565515,-52.734,-38.086,-41.992,-41.504
1789993450.569383,-22.949,-34.668,-35.645,-33.691
1789993450.573252,-22.461,-31.738,-37.598,-46.387
1789993450.577514,-50.293,-30.273,-39.062,-59.570
1789993450.581383,-50.293,-28.809,-33.203,-46.875
1789993450.585251,-24.902,-28.809,-34.180,-33.203
1789993450.589120,-20.020,-38.574,-43.457,-46.875
1789993450.592988,-36.621,-39.062,-52.246,-50.781
1789993450.596857,-37.109,-29.297,-48.828,-36.621
1789993450.600726,-22.949,-28.809,-43.945,-27.344
1789993450.604594,-3.906,-25.879,-34.668,-30.273
1789993450.608463,-15.137,-20.996,-29.785,-45.898
1789993450.612332,-30.273,-26.855,-34.180,-45.898
1789993450.616200,-20.996,-24.902,-35.156,-41.504
1789993450.620069,-5.371,-28.320,-30.273,-40.527
1789993450.624564,-13.672,-29.297,-28.320,-43.945
1789993450.628433,-35.156,-28.809,-32.227,-50.781
1789993450.632302,-27.344,-28.809,-30.762,-40.039
1789993450.636171,-9.277,-17.578,-30.273,-33.691
1789993450.640040,-17.090,-20.996,-31.738,-49.316
1789993450.643909,-43.945,-34.180,-40.039,-53.223
1789993450.647778,-54.199,-37.109,-44.434,-48.340
1789993450.651647,-34.668,-31.250,-44.434,-48.828
1789993450.655516,-14.648,-26.855,-46.875,-41.504
1789993450.659385,-36.133,-24.902,-41.016,-37.598
1789993450.663254,-53.223,-26.367,-41.016,-41.504
1789993450.667123,-38.574,-31.738,-40.039,-36.133
1789993450.671560,-20.508,-31.738,-34.668,-29.785
1789993450.675429,-30.762,-23.438,-32.715,-33.203
1789993450.679298,-51.758,-26.855,-34.180,-36.133
1789993450.683168,-51.270,-41.504,-38.086,-38.574
1789993450.687037,-34.180,-39.551,-30.273,-33.691
1789993450.690907,-37.598,-36.133,-29.297,-42.969
1789993450.694776,-52.246,-46.387,-35.156,-50.781
1789993450.698645,-50.781,-35.645,-31.250,-42.969
1789993450.702515,-18.555,-20.020,-26.367,-37.109
1789993450.706384,-9.277,-23.438,-27.344,-34.180
1789993450.710253,-31.738,-24.902,-29.785,-43.457
1789993450.714123,-32.227,-25.391,-34.180,-46.875
1789993450.718798,-20.996,-29.785,-34.180,-41.016
1789993450.722668,-9.277,-23.926,-32.715,-34.668
1789993450.726538,-26.367,-27.344,-41.016,-39.062
1789993450.730407,-45.898,-36.133,-36.133,-45.898
1789993450.734277,-30.273,-23.926,-25.879,-40.527
1789993450.738147,-8.301,-21.484,-23.438,-30.273
1789993450.742017,-22.461,-25.879,-22.949,-25.879
1789993450.745887,-39.551,-26.855,-26.367,-30.273
1789993450.749757,-36.621,-33.203,-30.762,-38.086
1789993450.753627,-27.832,-38.574,-37.109,-34.180
1789993450.757496,-37.109,-38.574,-37.109,-36.133
1789993450.761366,-53.711,-37.109,-32.715,-54.199
1789993450.765701,-56.152,-42.969,-37.109,-59.082
1789993450.769571,-44.434,-44.434,-27.344,-46.875
1789993450.773441,-33.691,-30.273,-17.090,-41.992
1789993450.777311,-50.781,-24.902,-26.367,-52.246
1789993450.781181,-59.082,-39.062,-32.227,-55.176
1789993450.785052,-44.434,-47.852,-30.762,-36.621
1789993450.788922,-27.344,-41.016,-34.180,-33.691
1789993450.792792,-38.086,-32.715,-38.574,-43.945
1789993450.796662,-53.711,-30.762,-31.250,-40.527
1789993450.800532,-44.922,-32.715,-29.785,-34.668
1789993450.804402,-32.227,-30.762,-39.551,-32.227
1789993450.808272,-36.621,-22.461,-41.016,-42.969
1789993450.812586,-55.176,-26.855,-40.039,-68.359
1789993450.816456,-42.969,-32.715,-41.992,-70.312
1789993450.820326,1.953,-26.855,-38.086,-38.086
1789993450.824197,-10.742,-28.320,-33.691,-36.621
1789993450.828067,-50.781,-30.762,-31.738,-57.129
1789993450.831938,-47.363,-27.832,-27.344,-51.758
1789993450.835808,-20.996,-38.574,-29.785,-33.203
1789993450.839678,-21.973,-47.363,-28.320,-23.438
1789993450.843549,-52.734,-43.945,-22.461,-38.574
1789993450.847419,-53.711,-36.621,-15.625,-42.480
1789993450.851289,-31.250,-41.992,-9.766,-21.484
1789993450.855160,-11.719,-47.363,0.488,-18.066
1789993450.859420,-32.715,-48.828,2.441,-33.203
1789993450.863291,-51.758,-43.945,-2.441,-26.855
1789993450.867162,-38.574,-40.039,1.465,-7.324
1789993450.871032,-18.555,-42.969,-1.465,1.465
1789993450.874903,-29.785,-41.504,-5.859,-6.836
1789993450.878773,-55.664,-42.480,-11.719,-26.367
1789993450.882644,-53.711,-44.434,-18.066,-40.039
1789993450.886514,-35.645,-46.387,-16.602,-22.949
1789993450.890385,-36.133,-47.363,-20.508,-28.320
1789993450.894256,-56.641,-41.504,-22.949,-47.852
1789993450.898126,-57.617,-40.527,-18.066,-38.086
1789993450.901997,-40.039,-50.293,-20.508,-33.203
1789993450.906263,-21.484,-43.945,-14.648,-28.320
1789993450.910134,-33.691,-35.156,-9.277,-22.949
1789993450.914005,-47.852,-37.598,-11.719,-33.203
1789993450.917876,-37.109,-34.180,-15.625,-38.086
1789993450.921746,-29.297,-39.062,-17.578,-33.691
1789993450.925617,-39.062,-36.133,-24.902,-43.945
1789993450.929488,-50.293,-31.738,-26.855,-34.668
1789993450.933359,-32.715,-31.738,-16.113,-20.996
1789993450.937230,-8.301,-29.297,-11.230,-18.066
1789993450.941100,-20.508,-34.180,-14.160,-15.625
1789993450.944971,-38.086,-37.109,-17.090,-16.113
1789993450.948842,-38.574,-42.969,-18.555,-21.973
1789993450.953074,-23.438,-43.945,-19.043,-33.691
1789993450.956945,-14.160,-35.156,-15.137,-30.762
1789993450.960816,-35.645,-36.133,-20.996,-37.598
1789993450.964687,-42.480,-41.504,-26.855,-44.434
1789993450.968558,-18.555,-31.738,-22.949,-26.367
1789993450.972429,0.488,-26.367,-25.879,-23.438
1789993450.976300,-22.461,-29.297,-29.297,-19.043
1789993450.980171,-34.180,-27.344,-27.344,-10.742
1789993450.984042,-16.602,-31.738,-25.391,-15.137
1789993450.987913,-6.348,-41.016,-31.738,-17.578
1789993450.991784,-26.855,-43.457,-35.645,-26.367
1789993450.995655,-56.641,-39.551,-36.133,-46.875
1789993450.999852,-56.152,-39.062,-40.527,-59.082
1789993451.003723,-31.738,-33.203,-36.621,-51.758
1789993451.007594,-36.133,-28.809,-38.086,-43.945
1789993451.011466,-41.504,-33.691,-36.133,-29.785
1789993451.015337,-42.969,-36.621,-32.227,-37.109
1789993451.019208,-44.434,-44.922,-26.855,-48.340
1789993451.023079,-40.527,-50.293,-24.902,-42.969
1789993451.026950,-65.918,-50.781,-33.203,-59.082
1789993451.030822,-76.660,-52.734,-30.273,-65.430
1789993451.034693,-62.012,-57.129,-20.020,-50.293
1789993451.038564,-37.598,-51.270,-20.020,-37.598
1789993451.042435,-57.617,-51.270,-20.508,-44.922
1789993451.046854,-85.449,-50.293,-19.531,-44.434
1789993451.050726,-64.453,-40.039,-24.902,-43.945
1789993451.054597,-44.922,-51.270,-25.391,-37.598
1789993451.058469,-61.035,-60.547,-26.855,-41.504
1789993451.062340,-73.242,-52.734,-33.691,-50.293
1789993451.066212,-69.336,-48.340,-35.645,-41.504
1789993451.070084,-53.223,-49.316,-33.691,-36.621
1789993451.073955,-49.805,-42.969,-31.738,-33.691
1789993451.077826,-69.336,-41.504,-34.668,-42.969
1789993451.081698,-69.824,-40.527,-33.691,-50.293
1789993451.085570,-47.852,-38.086,-30.273,-38.086
1789993451.089441,-37.598,-42.969,-29.785,-43.945
1789993451.093810,-54.688,-45.410,-25.879,-54.688
1789993451.097682,-58.594,-45.898,-24.414,-52.246
1789993451.101553,-41.016,-45.410,-29.297,-38.086
1789993451.105425,-33.691,-40.039,-29.297,-34.668
1789993451.109297,-48.340,-41.504,-25.879,-50.293
1789993451.113169,-62.012,-48.340,-27.832,-51.270
1789993451.117041,-50.293,-43.945,-23.438,-40.527
1789993451.120913,-31.738,-33.691,-23.926,-34.668
1789993451.124784,-50.781,-32.715,-33.203,-34.180
1789993451.128656,-71.777,-46.875,-37.598,-48.828
1789993451.132528,-55.664,-51.758,-32.227,-51.758
1789993451.136400,-27.832,-38.574,-23.926,-27.832
1789993451.140735,-26.855,-32.715,-29.785,-36.133
1789993451.144607,-44.434,-31.738,-30.762,-43.457
1789993451.148479,-44.434,-34.180,-18.555,-28.809
1789993451.152351,-24.902,-32.227,-20.996,-29.297
1789993451.156223,-19.531,-24.902,-27.832,-33.203
1789993451.160095,-42.480,-24.902,-30.273,-39.551
1789993451.163967,-50.293,-25.879,-31.738,-40.527
1789993451.167839,-40.039,-32.715,-34.180,-35.156
1789993451.171711,-27.832,-32.715,-35.645,-26.855
1789993451.175583,-38.086,-31.250,-24.414,-35.156
1789993451.179455,-42.969,-40.039,-25.879,-24.902
1789993451.183327,-20.996,-39.551,-30.273,-1.953
1789993451.187624,-9.277,-23.438,-31.250,-16.602
1789993451.191496,-32.227,-17.578,-41.504,-43.945
1789993451.195368,-46.387,-22.461,-45.898,-42.480
1789993451.199240,-21.973,-31.738,-47.363,-18.555
1789993451.203113,12.695,-35.156,-45.898,3.418
1789993451.206985,19.043,-34.180,-53.223,-0.488
1789993451.210857,3.418,-33.691,-57.129,-19.531
1789993451.214730,3.418,-29.297,-62.500,-9.277
1789993451.218602,22.461,-27.832,-63.477,7.812
1789993451.222474,41.992,-27.344,-48.828,13.184
1789993451.226346,16.602,-30.273,-52.734,3.418
1789993451.230219,-5.371,-34.180,-52.734,-6.836
1789993451.234495,0.000,-33.203,-41.504,1.953
1789993451.238367,0.000,-25.391,-47.852,12.207
1789993451.242240,0.000,-24.902,-55.664,-6.348
1789993451.246112,0.000,-37.598,-53.223,-20.020
1789993451.249985,0.000,-40.039,-48.828,-9.766
1789993451.253857,0.000,-26.367,-44.434,-17.578
1789993451.257730,0.000,-29.297,-46.387,-25.391
1789993451.261602,0.000,-31.738,-43.945,-21.973
1789993451.265475,0.000,-26.367,-39.551,-14.160
1789993451.269347,0.000,-26.367,-39.062,-2.930
1789993451.273220,0.000,-27.832,-36.133,0.977
1789993451.277092,0.000,-35.156,-44.434,-14.160
1789993451.281311,-20.996,-37.109,-49.316,-22.949
1789993451.285183,-0.977,-28.320,-35.156,-18.066
1789993451.289056,8.301,-23.926,-25.391,-14.160
1789993451.292929,-21.973,-29.297,-37.109,-25.391
1789993451.296802,-33.203,-37.598,-35.156,-19.531
1789993451.300674,-8.301,-37.598,-27.344,-19.043
1789993451.304547,14.648,-25.391,-32.227,-15.137
1789993451.308420,-3.418,-18.555,-33.691,-6.348
1789993451.312292,-26.367,-23.926,-30.273,-18.555
1789993451.316165,-18.555,-26.855,-30.762,-14.648
1789993451.320038,8.301,-17.090,-26.367,-3.906
1789993451.323910,9.766,-14.648,-20.020,0.977
1789993451.328067,-20.508,-25.879,-25.879,-18.066
1789993451.331940,-23.926,-29.297,-34.180,-29.297
1789993451.335813,-0.977,-29.297,-33.691,-16.113
1789993451.339686,-3.906,-29.785,-33.203,-20.508
1789993451.343559,-33.203,-21.484,-31.738,-30.762
1789993451.347432,-36.133,-22.461,-29.297,-27.344
1789993451.351305,-15.625,-27.344,-31.250,-15.625
1789993451.355177,-6.836,-28.809,-31.738,-18.555
1789993451.359050,-25.391,-36.621,-34.180,-33.691
1789993451.362923,-41.504,-40.039,-45.410,-40.039
1789993451.366796,-27.344,-35.156,-48.828,-25.879
1789993451.370669,1.953,-23.926,-38.086,-9.766
1789993451.374806,-5.859,-21.484,-36.621,-16.602
1789993451.378679,-27.344,-28.320,-35.156,-27.832
1789993451.382552,-31.250,-28.320,-37.598,-32.715
1789993451.386425,-6.348,-13.184,-41.992,-28.320
1789993451.390298,0.000,-12.207,-42.480,-34.180
1789993451.394171,-31.738,-31.250,-41.992,-32.227
1789993451.398044,-35.645,-31.250,-39.551,-24.902
1789993451.401917,-13.184,-20.508,-40.527,-29.297
1789993451.405790,0.000,-18.066,-37.598,-21.484
1789993451.409663,-22.949,-16.113,-40.527,-28.809
1789993451.413536,-40.527,-17.578,-45.410,-42.480
1789993451.417409,-24.902,-25.391,-41.016,-46.387
1789993451.421772,-13.672,-32.227,-45.898,-51.758
1789993451.425646,-33.691,-31.250,-51.758,-65.430
1789993451.429519,-53.223,-36.621,-49.805,-70.801
1789993451.433392,-34.668,-36.621,-44.922,-62.500
1789993451.437265,-11.719,-26.855,-42.480,-46.875
1789993451.441139,-28.320,-24.902,-40.527,-50.293
1789993451.445012,-42.480,-22.461,-30.273,-51.270
1789993451.448885,-32.715,-29.297,-29.297,-49.805
1789993451.452758,-15.137,-38.574,-37.598,-46.387
1789993451.456631,-25.879,-37.109,-40.527,-44.434
1789993451.460505,-51.270,-39.551,-42.969,-57.617
1789993451.464378,-46.875,-39.062,-48.340,-48.340
1789993451.468726,-26.367,-30.762,-49.805,-28.320
1789993451.472600,-15.625,-25.879,-43.457,-29.297
1789993451.476473,-30.762,-28.320,-40.039,-45.898
1789993451.480347,-47.852,-28.809,-39.062,-54.688
1789993451.484220,-34.668,-29.297,-32.715,-35.645
1789993451.488094,-6.348,-33.203,-38.086,-23.438
1789993451.491967,-27.832,-35.156,-38.574,-52.246
1789993451.495841,-49.316,-30.273,-38.574,-66.895
1789993451.499714,-25.391,-28.320,-41.504,-41.992
1789993451.503588,-5.371,-26.367,-35.645,-12.207
1789993451.507461,-14.160,-23.926,-38.574,-21.973
1789993451.511335,-32.227,-26.855,-37.598,-54.199
1789993451.515628,-34.668,-17.578,-32.227,-52.246
1789993451.519502,-19.531,-22.461,-36.133,-40.039
1789993451.523376,-18.066,-36.133,-31.250,-33.203
1789993451.527249,-29.297,-37.598,-36.133,-27.832
1789993451.531123,-45.410,-31.250,-41.504,-44.434
1789993451.534997,-42.969,-27.344,-36.133,-59.570
1789993451.538870,-25.879,-25.879,-42.480,-50.781
1789993451.542744,-34.668,-23.926,-45.410,-47.852
1789993451.546618,-42.480,-26.367,-43.945,-33.203
1789993451.550492,-27.832,-20.996,-51.270,-21.973
1789993451.554365,-9.766,-21.973,-58.594,-32.227
1789993451.558239,-23.438,-27.832,-58.594,-45.898
1789993451.562512,-50.781,-31.738,-59.570,-64.453
1789993451.566386,-45.898,-35.645,-55.664,-67.871
1789993451.570260,-21.973,-34.668,-54.199,-50.781
1789993451.574134,-30.273,-32.715,-52.246,-40.039
1789993451.578008,-53.711,-32.227,-52.734,-60.547
1789993451.581882,-45.898,-29.297,-45.898,-61.523
1789993451.585756,-13.672,-17.578,-32.227,-22.461
1789993451.589630,-5.859,-18.555,-38.574,-7.324
1789993451.593503,-40.527,-26.855,-53.223,-37.109
1789993451.597378,-47.852,-23.438,-52.246,-57.129
1789993451.601251,-19.043,-29.785,-44.922,-51.270
1789993451.605125,-7.812,-35.645,-40.039,-36.133
1789993451.609369,-28.809,-31.738,-39.062,-35.645
1789993451.613243,-45.410,-33.691,-38.086,-39.062
1789993451.617117,-35.156,-40.527,-41.504,-36.621
1789993451.620991,-20.996,-39.062,-46.875,-38.574
1789993451.624866,-40.527,-29.297,-41.504,-42.969
1789993451.628740,-54.688,-25.391,-32.715,-39.551
1789993451.632614,-37.598,-24.414,-39.551,-42.480
1789993451.636488,-19.043,-28.320,-47.852,-44.434
1789993451.640362,-23.926,-27.344,-42.969,-37.598
1789993451.644236,-48.340,-26.855,-42.969,-42.969
1789993451.648110,-48.340,-27.832,-45.898,-40.527
1789993451.651985,-20.020,-23.926,-47.363,-29.785
1789993451.656219,-20.996,-30.762,-45.410,-41.992
1789993451.660093,-51.758,-33.203,-43.945,-55.176
1789993451.663967,-53.223,-31.738,-39.551,-39.062
1789993451.667841,-36.621,-34.180,-39.062,-26.367
1789993451.671716,-27.344,-35.645,-39.062,-28.320
1789993451.675590,-38.574,-29.785,-31.738,-31.738
1789993451.679464,-45.410,-24.902,-34.668,-34.180
1789993451.683339,-38.086,-25.879,-39.062,-41.016
1789993451.687213,-21.973,-26.855,-38.086,-39.062
1789993451.691087,-27.832,-31.738,-40.039,-36.133
1789993451.694962,-48.340,-35.645,-39.551,-29.785
1789993451.698836,-35.645,-32.715,-26.367,-21.973
1789993451.702994,-14.648,-21.973,-26.855,-22.949
1789993451.706868,-19.531,-20.508,-36.621,-14.160
1789993451.710743,-39.062,-31.738,-23.926,-17.090
1789993451.714617,-39.062,-32.227,-20.020,-27.344
1789993451.718492,-12.207,-32.715,-22.949,-23.926
1789993451.722366,-1.465,-38.574,-26.367,-39.062
1789993451.726240,-27.344,-41.504,-33.203,-45.898
1789993451.730115,-46.387,-44.922,-36.621,-37.109
1789993451.733989,-28.809,-38.086,-35.645,-38.574
1789993451.737864,-2.441,-36.133,-33.691,-25.391
1789993451.741738,-20.508,-40.039,-34.180,-33.691
1789993451.745613,-40.039,-35.156,-31.738,-54.199
1789993451.749743,-27.344,-29.297,-27.832,-47.852
1789993451.753618,-12.207,-34.668,-29.297,-34.668
1789993451.757492,-23.438,-38.574,-29.297,-29.297
1789993451.761367,-41.504,-27.832,-18.066,-36.133
1789993451.765241,-34.668,-22.949,-21.973,-36.133
1789993451.769116,-17.090,-27.344,-29.297,-19.531
1789993451.772991,-18.066,-31.250,-23.438,-29.297
1789993451.776865,-41.992,-34.668,-19.043,-51.270
1789993451.780740,-53.223,-36.133,-24.902,-50.293
1789993451.784615,-30.273,-37.109,-23.438,-47.852
1789993451.788489,-27.832,-27.344,-22.949,-48.828
1789993451.792364,-64.941,-22.461,-28.809,-63.965
1789993451.796715,-84.473,-22.949,-24.902,-87.402
1789993451.800590,-81.055,-23.438,-22.461,-96.680
1789993451.804465,-74.219,-26.367,-35.156,-104.492
1789993451.808340,-99.121,-22.461,-34.668,-123.047
1789993451.812215,-131.836,-20.020,-26.367,-133.301
1789993451.816089,-135.742,-17.090,-23.926,-137.695
1789993451.819964,-135.254,-15.625,-21.484,-143.555
1789993451.823839,-163.574,-13.184,-22.949,-173.340
1789993451.827714,-194.336,-5.371,-23.438,-205.566
1789993451.831589,-200.684,0.488,-23.438,-205.078
1789993451.835464,-197.754,5.371,-18.066,-206.543
1789993451.839339,-210.938,10.254,-20.508,-221.680
1789993451.843666,-239.258,-0.488,-25.879,-233.398
1789993451.847541,-241.211,-7.324,-28.320,-230.469
1789993451.851417,-225.586,6.348,-34.668,-220.215
1789993451.855292,-214.844,6.836,-33.203,-215.332
1789993451.859167,-220.215,-0.977,-31.250,-222.656
1789993451.863042,-220.703,-2.441,-28.320,-215.332
1789993451.866917,-186.523,-8.301,-25.391,-187.988
1789993451.870792,-154.297,-11.719,-23.438,-168.457
1789993451.874667,-156.250,-10.742,-20.996,-164.551
1789993451.878542,-161.133,-17.578,-15.137,-157.715
1789993451.882417,-148.438,-36.621,-12.695,-133.301
1789993451.886292,-128.906,-49.316,-16.113,-122.559
1789993451.890609,-126.953,-57.129,-18.555,-127.441
1789993451.894484,-138.672,-60.059,-22.949,-117.676
1789993451.898359,-125.000,-58.105,-18.066,-94.238
1789993451.902235,-85.938,-62.012,-10.742,-70.801
1789993451.906110,-64.941,-60.547,-10.254,-45.898
1789993451.909985,-81.543,-61.035,-6.348,-44.922
1789993451.913860,-75.684,-66.895,-10.254,-46.875
1789993451.917736,-34.668,-60.547,-3.906,-27.832
1789993451.921611,-14.160,-61.035,0.000,-11.719
1789993451.925486,-22.461,-59.082,-8.789,-9.277
1789993451.929362,-27.832,-54.199,-9.766,-14.648
1789993451.933237,-12.695,-56.641,-14.648,-2.441
1789993451.937482,16.602,-57.617,-8.301,17.578
1789993451.941357,16.113,-57.617,-5.859,10.742
1789993451.945233,0.977,-51.758,-6.348,8.301
1789993451.949108,10.254,-51.758,-12.695,14.648
1789993451.952984,37.109,-60.547,-17.578,24.414
1789993451.956859,48.340,-51.758,-10.742,32.227
1789993451.960734,25.879,-47.852,-12.695,23.438
1789993451.964610,22.949,-57.129,-15.137,30.273
1789993451.968485,47.363,-56.641,-20.508,43.945
1789993451.972361,59.082,-54.199,-21.484,40.039
1789993451.976236,42.480,-53.711,-19.043,29.297
1789993451.980112,32.227,-50.781,-14.160,29.785
1789993451.984335,45.410,-47.363,-14.160,46.875
1789993451.988211,64.453,-46.875,-18.066,56.152
1789993451.992087,50.293,-47.363,-15.625,42.969
1789993451.995962,28.320,-42.969,-23.926,29.785
1789993451.999838,41.992,-42.969,-27.344,39.062
1789993452.003714,66.895,-47.852,-23.926,55.176
1789993452.007589,60.547,-49.805,-20.020,52.734
1789993452.011465,39.551,-50.293,-13.184,53.223
1789993452.015341,45.410,-43.945,-18.066,55.176
1789993452.019216,68.359,-40.527,-19.531,48.828
1789993452.023092,64.941,-45.410,-19.043,39.551
1789993452.026968,41.992,-44.922,-14.648,30.273
1789993452.031148,39.062,-50.293,-5.371,35.645
1789993452.035023,52.734,-53.711,-11.230,34.668
1789993452.038899,58.105,-41.992,-13.672,33.203
1789993452.042775,44.922,-37.109,-1.953,32.715
1789993452.046651,36.621,-38.086,3.906,33.203
1789993452.050527,40.039,-41.504,-2.441,43.945
1789993452.054403,47.363,-42.480,-12.207,49.316
1789993452.058278,34.180,-39.062,-13.184,39.062
1789993452.062154,13.672,-40.527,-11.719,13.184
1789993452.066030,23.926,-42.969,-18.555,6.836
1789993452.069906,48.340,-43.457,-15.625,25.391
1789993452.073781,34.668,-45.898,-13.672,20.508
1789993452.077926,10.742,-40.527,-16.602,10.254
1789993452.081802,14.160,-38.086,-19.531,2.441
1789993452.085678,34.180,-33.203,-19.531,5.371
1789993452.089554,39.551,-25.391,-13.672,18.555
1789993452.093430,12.695,-34.668,-15.137,8.789
1789993452.097306,2.441,-43.457,-20.996,7.812
1789993452.101181,30.273,-40.527,-18.555,21.484
1789993452.105057,40.527,-39.551,-15.625,12.695
1789993452.108933,14.160,-35.156,-22.461,-5.859
1789993452.112809,2.441,-29.785,-29.785,-13.184
1789993452.116685,9.277,-29.297,-32.715,-22.949
1789993452.120561,20.020,-24.902,-29.297,-24.414
1789993452.124708,0.000,-22.461,-30.273,-15.137
1789993452.128584,0.000,-37.598,-39.062,-18.066
1789993452.132460,0.000,-45.410,-37.598,-17.090
1789993452.136336,0.000,-41.016,-35.645,-6.836
1789993452.140212,0.000,-42.969,-45.410,-12.207
1789993452.144088,0.000,-37.598,-42.480,-20.996
1789993452.147964,0.000,-35.645,-38.086,-21.973
1789993452.151840,0.000,-33.203,-41.504,-16.602
1789993452.155716,0.000,-23.438,-41.016,-12.695
1789993452.159592,0.000,-26.855,-36.621,-22.461
1789993452.163468,0.000,-38.574,-34.668,-21.484
1789993452.167345,0.000,-37.598,-35.645,-15.625
1789993452.171675,2.930,-38.574,-30.762,-17.090
1789993452.175552,-11.719,-44.922,-32.227,-16.602
1789993452.179428,-20.020,-41.504,-36.621,-13.672
1789993452.183304,-16.113,-37.109,-34.180,-12.695
1789993452.187181,3.418,-44.434,-40.039,-9.277
1789993452.191057,-0.977,-41.016,-42.480,-13.672
1789993452.194933,-17.090,-30.273,-41.992,-12.207
1789993452.198809,-8.789,-37.109,-44.434,-10.742
1789993452.202686,12.207,-43.945,-47.363,-11.230
1789993452.206562,9.277,-41.992,-45.410,-9.277
1789993452.210438,-16.602,-40.527,-49.805,-26.367
1789993452.214314,-17.578,-39.551,-51.270,-26.855
1789993452.218624,-0.977,-36.621,-41.992,-14.160
1789993452.222501,5.371,-35.645,-45.898,-15.625
1789993452.226377,-19.531,-41.016,-43.945,-25.391
1789993452.230254,-31.738,-35.645,-43.457,-19.531
1789993452.234130,-8.789,-32.227,-51.270,-12.207
1789993452.238007,11.230,-33.691,-49.316,-20.020
1789993452.241883,-4.883,-31.250,-43.457,-26.855
1789993452.245760,-29.785,-28.320,-39.062,-30.762
1789993452.249636,-21.973,-38.574,-39.062,-27.832
1789993452.253513,-0.977,-36.621,-42.480,-20.508
1789993452.257389,-10.742,-13.184,-45.898,-30.273
1789993452.261266,-34.668,-15.137,-49.805,-44.434
1789993452.265558,0.000,-26.367,-44.922,-50.293
1789993452.269434,0.000,-26.367,-38.574,-41.992
1789993452.273311,0.000,-25.879,-43.945,-41.504
1789993452.277188,0.000,-25.391,-43.457,-46.875
1789993452.281065,0.000,-23.926,-35.156,-32.227
1789993452.284941,0.000,-35.156,-30.273,-20.020
1789993452.288818,0.000,-41.504,-24.414,-21.484
1789993452.292695,0.000,-31.738,-25.391,-32.715
1789993452.296571,0.000,-26.367,-27.832,-35.645
1789993452.300448,0.000,-24.414,-29.297,-33.203
1789993452.304325,0.000,-23.438,-31.738,-30.762
1789993452.308201,0.000,-21.484,-33.691,-30.273
1789993452.312454,-27.344,-26.855,-33.203,-37.598
1789993452.316331,-23.438,-31.250,-26.367,-35.645
1789993452.320208,-8.789,-33.691,-33.203,-26.855
1789993452.324085,-16.113,-41.016,-45.410,-34.180
1789993452.327962,-36.133,-40.039,-42.969,-42.969
1789993452.331838,-31.738,-38.086,-36.621,-30.273
1789993452.335715,-12.207,-35.645,-34.180,-26.367
1789993452.339592,-11.719,-26.855,-37.598,-35.645
1789993452.343469,-33.203,-24.414,-34.668,-41.504
1789993452.347346,-43.945,-27.344,-33.203,-51.758
1789993452.351223,-28.809,-33.203,-37.598,-46.875
1789993452.355100,-16.113,-34.180,-38.086,-29.785
1789993452.359331,-35.645,-27.832,-35.156,-34.668
1789993452.363208,-53.711,-21.484,-37.109,-48.340
1789993452.367085,-41.016,-24.414,-39.551,-38.086
1789993452.370962,-17.090,-26.855,-44.434,-26.855
1789993452.374839,-31.250,-22.949,-49.316,-38.086
1789993452.378716,-47.852,-25.391,-48.828,-43.945
1789993452.382593,-34.180,-25.391,-45.410,-37.598
1789993452.386470,-14.648,-27.832,-48.828,-22.949
1789993452.390347,-23.438,-33.203,-50.781,-35.156
1789993452.394224,-45.898,-31.250,-49.805,-68.359
1789993452.398101,-51.270,-31.250,-53.711,-61.523
1789993452.401978,-33.691,-33.203,-46.875,-46.875
1789993452.406167,-17.578,-25.391,-33.203,-46.875
1789993452.410044,-30.273,-24.902,-38.574,-52.734
1789993452.413922,-33.203,-23.438,-36.133,-39.062
1789993452.417799,-14.648,-19.531,-33.203,-25.391
1789993452.421676,-4.395,-33.203,-42.480,-24.902
1789993452.425553,-26.855,-38.086,-41.504,-37.109
1789993452.429430,-42.969,-29.785,-38.086,-45.410
1789993452.433307,-24.902,-22.949,-33.203,-26.367
1789993452.437185,-8.301,-27.344,-31.738,-23.438
1789993452.441062,-17.090,-25.879,-32.227,-38.574
1789993452.444939,-29.785,-21.973,-32.715,-36.621
1789993452.448816,-26.855,-28.320,-35.156,-39.551
1789993452.452973,-4.883,-26.367,-35.156,-35.645
1789993452.456851,-7.812,-21.973,-45.898,-30.273
1789993452.460728,-37.109,-18.066,-48.340,-43.457
1789993452.464605,-35.156,-18.555,-38.086,-44.922
1789993452.468482,-15.137,-25.391,-38.086,-34.180
1789993452.472360,-16.602,-34.180,-37.109,-36.621
1789993452.476237,-34.668,-32.715,-36.133,-33.203
1789993452.480114,-38.574,-26.855,-41.016,-29.785
1789993452.483992,-27.832,-37.109,-35.156,-32.715
1789993452.487869,-13.672,-36.621,-33.691,-22.461
1789993452.491746,-32.227,-26.367,-37.109,-31.250
1789993452.495624,-52.734,-27.344,-37.598,-45.898
1789993452.499738,-36.133,-32.227,-38.574,-32.227
1789993452.503615,-13.184,-29.785,-37.109,-16.602
1789993452.507492,-27.832,-24.414,-41.504,-25.879
1789993452.511370,-44.922,-20.508,-35.156,-37.598
1789993452.515247,-38.574,-26.855,-29.785,-39.062
1789993452.519125,-20.996,-34.180,-41.016,-29.297
1789993452.523002,-17.578,-35.156,-41.992,-18.066
1789993452.526879,-35.645,-30.273,-33.691,-29.297
1789993452.530757,-39.551,-27.344,-39.062,-35.645
1789993452.534634,-18.555,-30.762,-43.945,-23.438
1789993452.538512,-17.090,-27.832,-37.598,-24.414
1789993452.542389,-36.621,-23.438,-37.598,-48.828
1789993452.546712,-37.598,-30.762,-38.086,-50.781
1789993452.550590,-30.273,-35.156,-37.109,-38.574
1789993452.554467,-13.184,-33.203,-39.551,-39.551
1789993452.558345,-25.879,-38.086,-38.574,-41.504
1789993452.562222,-56.152,-34.180,-45.898,-48.340
1789993452.566100,-41.992,-32.715,-46.387,-37.598
1789993452.569978,-16.113,-27.832,-37.598,-22.461
1789993452.573855,-25.879,-18.066,-39.062,-26.367
1789993452.577733,-42.969,-32.715,-40.039,-27.832
1789993452.581611,-39.551,-42.480,-38.574,-17.090
1789993452.585488,-21.484,-35.645,-42.969,-22.461
1789993452.589366,-18.555,-31.738,-49.805,-48.340
1789993452.593668,-37.598,-30.273,-45.410,-55.176
1789993452.597546,-37.109,-30.762,-37.598,-42.480
1789993452.601424,-19.043,-35.156,-43.457,-32.227
1789993452.605302,-14.648,-41.504,-52.246,-35.156
1789993452.609179,-34.668,-30.762,-45.898,-52.734
1789993452.613057,-45.410,-25.391,-43.945,-58.594
1789993452.616935,-31.250,-37.598,-42.969,-39.551
1789993452.620813,-12.695,-40.039,-43.457,-18.066
1789993452.624691,-27.344,-38.086,-48.340,-17.578
1789993452.628569,-46.875,-41.016,-48.340,-28.320
1789993452.632446,-35.156,-43.457,-45.410,-46.387
1789993452.636324,-3.906,-38.086,-47.852,-52.246
1789993452.640578,-9.277,-36.621,-42.969,-47.852
1789993452.644456,-58.105,-36.621,-38.574,-59.570
1789993452.648334,-66.406,-46.875,-40.039,-56.641
1789993452.652212,-31.250,-59.570,-32.715,-30.762
1789993452.656090,-29.297,-57.129,-31.250,-31.738
1789993452.659968,-59.570,-61.035,-33.203,-49.805
1789993452.663846,-62.988,-63.965,-21.973,-38.086
1789993452.667724,-41.992,-54.199,-23.438,-25.391
1789993452.671602,-24.902,-48.828,-36.621,-33.203
1789993452.675480,-43.945,-51.270,-28.320,-48.340
1789993452.679358,-58.594,-49.316,-23.926,-57.129
1789993452.683236,-31.250,-47.852,-24.902,-30.762
1789993452.687499,-18.066,-54.199,-23.926,-6.836
1789993452.691377,-36.621,-50.781,-17.578,-20.996
1789993452.695256,-53.223,-51.758,-24.902,-34.180
1789993452.699134,-48.340,-58.105,-38.086,-38.574
1789993452.703012,-27.344,-49.805,-31.250,-31.250
1789993452.706890,-33.203,-48.828,-36.621,-54.199
1789993452.710768,-52.246,-56.152,-38.086,-79.102
1789993452.714646,-43.945,-52.246,-32.227,-53.223
1789993452.718524,-27.832,-48.828,-31.250,-32.227
1789993452.722403,-28.809,-50.781,-38.086,-41.992
1789993452.726281,-50.293,-47.363,-36.621,-48.828
1789993452.730159,-53.223,-49.316,-28.320,-42.480
1789993452.734365,-28.320,-49.316,-30.762,-30.273
1789993452.738243,-17.090,-45.898,-35.645,-29.785
1789993452.742121,-43.457,-51.270,-41.992,-53.223
1789993452.746000,-53.223,-43.457,-40.527,-53.711
1789993452.749878,-36.133,-33.203,-36.621,-45.898
1789993452.753756,-17.090,-42.969,-41.504,-32.227
1789993452.757635,-11.719,-49.316,-44.434,-8.789
1789993452.761513,-39.062,-38.086,-46.387,-20.996
1789993452.765391,-52.734,-26.855,-57.617,-48.340
1789993452.769270,-20.508,-27.344,-62.988,-37.598
1789993452.773148,-11.230,-29.785,-68.359,-27.344
1789993452.777026,-24.414,-22.461,-75.195,-33.691
1789993452.781215,-21.484,-17.090,-80.566,-35.156
1789993452.785094,-0.488,-9.766,-85.449,-26.855
1789993452.788972,9.766,1.465,-94.238,-26.367
1789993452.792850,-13.184,-1.465,-93.750,-41.016
1789993452.796729,-19.043,2.930,-86.426,-55.176
1789993452.800607,7.812,6.836,-85.938,-49.805
1789993452.804486,21.484,0.977,-80.078,-27.832
1789993452.808364,-5.859,-8.789,-81.055,-31.250
1789993452.812243,-32.227,-14.160,-84.961,-52.734
1789993452.816121,-20.020,-11.719,-83.984,-53.711
1789993452.820000,8.301,-6.836,-81.543,-44.434
1789993452.823878,0.977,-1.953,-76.660,-54.199
1789993452.827996,-16.602,0.977,-67.383,-46.387
1789993452.831875,-5.859,8.301,-58.105,-29.297
1789993452.835754,17.090,11.719,-59.082,-31.738
1789993452.839632,11.230,-2.930,-59.082,-34.668
1789993452.843511,-17.578,-19.531,-59.570,-38.086
1789993452.847389,-21.484,-21.484,-62.988,-46.875
1789993452.851268,-5.859,-20.020,-62.500,-37.109
1789993452.855146,-1.465,-23.438,-63.965,-27.344
1789993452.859025,-21.973,-26.367,-62.500,-36.621
1789993452.862904,-19.531,-26.855,-56.152,-36.621
1789993452.866782,4.883,-25.391,-58.594,-32.715
1789993452.870661,14.160,-21.484,-55.176,-31.738
1789993452.874777,1.465,-19.531,-47.363,-32.227
1789993452.878655,-12.207,-27.832,-56.152,-31.738
1789993452.882534,-13.184,-35.156,-61.035,-24.902
1789993452.886413,8.301,-27.832,-57.617,-32.715
1789993452.890291,-2.930,-22.949,-58.594,-53.711
1789993452.894170,-25.879,-20.996,-48.340,-46.875
1789993452.898049,-14.648,-20.508,-43.457,-22.461
1789993452.901927,-3.418,-19.043,-45.898,-17.090
1789993452.905806,0.488,-15.137,-44.434,-19.043
1789993452.909685,-13.672,-17.090,-41.992,-26.367
1789993452.913563,-23.926,-26.367,-46.387,-43.945
1789993452.917442,-6.348,-22.949,-51.270,-33.203
1789993452.921758,5.371,-20.020,-45.898,-25.391
1789993452.925637,-16.602,-27.344,-48.340,-37.598
1789993452.929516,-29.785,-25.391,-44.922,-32.715
1789993452.933395,-23.438,-35.156,-47.852,-27.832
1789993452.937274,-10.254,-38.574,-55.176,-23.438
1789993452.941153,-14.160,-29.297,-54.199,-18.066
1789993452.945031,-28.809,-32.227,-45.410,-19.043
1789993452.948910,-33.203,-23.438,-42.480,-27.832
1789993452.952789,-27.344,-21.973,-52.246,-43.457
1789993452.956668,-24.902,-24.902,-46.875,-41.016
1789993452.960547,-44.922,-21.484,-45.410,-43.945
1789993452.964426,-42.480,-17.578,-50.781,-45.898
1789993452.968688,-17.578,-11.719,-51.758,-32.715
1789993452.972567,-16.113,-8.301,-51.758,-26.855
1789993452.976446,-40.527,-5.371,-59.570,-34.668
1789993452.980325,-38.574,-7.324,-62.012,-43.945
1789993452.984204,-16.113,-24.902,-62.012,-38.574
1789993452.988083,-4.883,-21.973,-61.035,-35.645
1789993452.991962,-18.555,-11.719,-60.059,-48.340
1789993452.995841,-33.203,-16.113,-57.617,-42.480
1789993452.999720,-15.137,-20.508,-57.129,-32.715
1789993453.003599,3.906,-19.043,-56.152,-25.391
1789993453.007478,-15.625,-23.926,-52.734,-41.016
1789993453.011357,-41.504,-41.504,-55.664,-54.688
1789993453.015596,-36.621,-47.852,-57.617,-41.992
1789993453.019475,-9.277,-34.668,-56.641,-37.109
1789993453.023355,-12.695,-30.273,-51.270,-45.410
1789993453.027234,-33.691,-37.598,-46.875,-48.340
1789993453.031113,-28.809,-32.227,-41.504,-33.691
1789993453.034992,-12.207,-24.902,-45.410,-29.297
1789993453.038872,-2.930,-22.949,-45.898,-30.762
1789993453.042751,-22.461,-26.855,-41.504,-40.039
1789993453.046630,-33.691,-27.344,-34.180,-37.109
1789993453.050509,-14.648,-24.902,-23.926,-15.137
1789993453.054388,2.930,-29.785,-36.621,-14.160
1789993453.058267,-19.531,-29.785,-44.922,-28.320
1789993453.062470,-39.062,-26.367,-39.551,-35.156
1789993453.066349,-22.461,-33.203,-37.109,-24.414
1789993453.070229,0.000,-31.738,-37.598,-18.066
1789993453.074108,-3.906,-25.879,-33.203,-22.461
1789993453.077987,-25.879,-28.320,-24.902,-28.809
1789993453.081867,-26.855,-22.949,-29.297,-34.668
1789993453.085746,-2.441,-23.438,-41.504,-36.621
1789993453.089625,-5.371,-26.367,-46.387,-30.762
1789993453.093504,-39.062,-22.949,-41.992,-29.785
1789993453.097384,-41.992,-20.508,-40.039,-33.691
1789993453.101263,-27.344,-33.691,-43.457,-30.762
1789993453.105143,-13.672,-37.109,-39.551,-33.203
1789993453.109330,-34.668,-32.227,-37.598,-42.969
1789993453.113210,-52.734,-28.320,-37.598,-37.109
1789993453.117089,-29.297,-20.508,-35.645,-20.020
1789993453.120969,-15.137,-20.996,-36.621,-18.066
1789993453.124848,-34.180,-26.855,-37.598,-36.621
1789993453.128728,-43.457,-24.414,-41.016,-46.875
1789993453.132607,-39.551,-27.832,-45.898,-47.852
1789993453.136487,-30.762,-39.551,-49.316,-43.457
1789993453.140366,-41.016,-44.434,-50.781,-42.969
1789993453.144246,-56.641,-37.109,-51.270,-47.852
1789993453.148125,-40.039,-29.785,-50.781,-43.945
1789993453.152004,-10.742,-36.133,-49.316,-32.715
1789993453.156157,-13.184,-34.668,-44.922,-19.531
1789993453.160036,-34.180,-28.320,-39.551,-27.344
1789993453.163916,-35.156,-28.320,-38.086,-29.785
1789993453.167795,-14.648,-27.832,-37.109,-25.879
1789993453.171675,-2.441,-29.297,-39.062,-34.668
1789993453.175555,-27.832,-25.391,-36.621,-38.086
1789993453.179434,-39.062,-17.090,-31.738,-21.484
1789993453.183314,-18.555,-31.738,-32.227,-19.531
1789993453.187193,-15.137,-45.410,-35.156,-32.227
1789993453.191073,-33.691,-38.086,-36.133,-43.457
1789993453.194952,-41.992,-36.621,-32.227,-48.340
1789993453.198832,-35.645,-32.715,-33.203,-31.738
1789993453.202957,-23.438,-35.156,-39.062,-24.902
1789993453.206837,-24.414,-32.227,-42.480,-35.156
1789993453.210716,-45.410,-18.066,-37.598,-46.875
1789993453.214596,-48.340,-21.973,-33.691,-49.316
1789993453.218476,-30.273,-37.109,-39.551,-42.480
1789993453.222356,-24.902,-39.551,-46.875,-39.551
1789993453.226235,-37.598,-33.691,-43.945,-34.180
1789993453.230115,-41.016,-29.297,-34.668,-35.156
1789993453.233995,-23.438,-22.461,-34.180,-38.574
1789993453.237875,-6.348,-10.254,-31.738,-28.809
1789993453.241754,-29.297,-13.184,-37.598,-33.691
1789993453.245634,-49.805,-34.180,-41.992,-32.715
1789993453.249725,-40.039,-38.574,-40.039,-26.367
1789993453.253604,-24.902,-36.621,-43.457,-40.527
1789993453.257484,-27.832,-40.527,-43.457,-51.270
1789993453.261364,-24.902,-35.156,-36.621,-19.043
1789993453.265244,-17.578,-35.645,-26.855,-0.488
1789993453.269124,-22.949,-40.527,-19.043,-24.414
1789993453.273003,-38.086,-38.086,-18.066,-42.480
1789993453.276883,-62.988,-44.922,-17.090,-50.293
1789993453.280763,-67.383,-59.082,-7.812,-45.898
1789993453.284643,-46.875,-61.035,-5.859,-28.809
1789993453.288522,-47.363,-56.641,0.000,-26.855
1789993453.292402,-70.801,-57.129,9.766,-35.156
1789993453.296692,-70.312,-62.988,10.742,-27.832
1789993453.300572,-45.898,-66.895,5.859,-29.785
1789993453.304452,-36.621,-62.012,5.859,-35.645
1789993453.308332,-54.199,-66.406,10.742,-39.062
1789993453.312212,-64.941,-68.848,4.395,-39.551
1789993453.316092,-56.641,-62.012,0.977,-27.344
1789993453.319972,-33.691,-49.316,0.000,-18.066
1789993453.323852,-45.898,-50.293,-2.441,-28.320
1789993453.327732,-67.383,-58.105,-3.418,-45.898
1789993453.331612,-53.711,-51.270,-9.277,-47.363
1789993453.335492,-28.320,-48.828,-13.184,-40.039
1789993453.339372,-27.832,-59.082,-9.766,-44.434
1789993453.343624,-52.246,-61.035,-15.137,-41.992
1789993453.347505,-53.711,-52.734,-10.742,-35.645
1789993453.351385,-25.391,-46.875,-3.906,-41.016
1789993453.355265,-10.742,-43.457,-11.230,-44.922
1789993453.359145,-29.785,-41.016,-19.043,-42.969
1789993453.363025,-38.086,-29.785,-16.602,-39.551
1789993453.366905,-6.836,-26.855,-9.766,-26.855
1789993453.370785,3.906,-52.246,-18.555,-20.996
1789993453.374665,-32.715,-62.012,-35.156,-30.762
1789993453.378546,-48.828,-49.316,-34.668,-44.434
1789993453.382426,-29.297,-46.875,-32.715,-38.574
1789993453.386306,-9.766,-51.758,-41.016,-20.996
1789993453.390526,-15.625,-44.434,-38.574,-21.973
1789993453.394406,-33.691,-36.621,-28.320,-35.156
1789993453.398286,-33.203,-35.156,-28.809,-39.062
1789993453.402167,-8.301,-41.992,-34.180,-29.785
1789993453.406047,-16.113,-49.805,-33.203,-34.180
1789993453.409927,-48.828,-45.898,-23.926,-40.527
1789993453.413807,-45.410,-38.574,-23.926,-34.668
1789993453.417688,-21.973,-38.574,-21.973,-24.902
1789993453.421568,-8.301,-38.574,-17.090,-24.414
1789993453.425448,-35.645,-31.738,-22.461,-36.133
1789993453.429328,-47.852,-40.039,-21.484,-37.109
1789993453.433208,-34.180,-41.504,-17.578,-35.156
1789993453.437403,-27.832,-36.133,-19.531,-26.855
1789993453.441283,-39.551,-40.039,-21.484,-33.203
1789993453.445164,-47.363,-34.180,-19.043,-43.457
1789993453.449044,-36.621,-32.227,-17.578,-35.645
1789993453.452924,-20.508,-34.180,-21.484,-19.531
1789993453.456805,-23.926,-37.109,-23.438,-32.227
1789993453.460685,-41.992,-37.598,-22.949,-49.316
1789993453.464566,-36.621,-22.949,-21.973,-37.109
1789993453.468446,-6.348,-17.090,-15.625,-20.996
1789993453.472327,-5.371,-22.949,-15.625,-20.996
1789993453.476207,-32.227,-22.461,-21.484,-36.621
1789993453.480087,-34.668,-23.926,-20.508,-34.668
1789993453.484265,-17.578,-28.320,-19.043,-21.484
1789993453.488145,-7.324,-29.785,-20.508,-23.926
1789993453.492026,-22.461,-33.203,-28.809,-28.809
1789993453.495906,-40.039,-35.645,-29.297,-26.855
1789993453.499787,-19.531,-41.016,-23.438,-23.438
1789993453.503667,-3.906,-40.527,-28.320,-12.207
1789993453.507548,-35.645,-32.227,-42.480,-41.992
1789993453.511428,-55.664,-30.273,-48.828,-61.035
1789993453.515309,-30.762,-27.344,-45.410,-43.945
1789993453.519189,-9.766,-31.250,-44.434,-37.598
1789993453.523070,-22.461,-29.297,-46.875,-44.434
1789993453.526950,-39.551,-20.020,-38.574,-52.734
1789993453.531086,-33.691,-16.113,-34.180,-47.363
1789993453.534967,-11.230,-25.391,-35.645,-33.691
1789993453.538847,-11.230,-29.785,-36.621,-27.344
1789993453.542728,-37.598,-27.832,-38.574,-38.086
1789993453.546608,-39.062,-34.180,-40.039,-37.109
1789993453.550489,-13.184,-30.273,-41.504,-35.645
1789993453.554370,-7.324,-26.367,-43.457,-38.574
1789993453.558250,-37.109,-33.691,-36.133,-40.527
1789993453.562131,-42.969,-25.879,-33.691,-36.133
